%OpenBCI Raw EXG Data
%Number of channels = 8
%Sample Rate = 250 Hz
%Board = OpenBCI_GUI$BoardCytonSerial
Sample Index, EXG Channel 0, EXG Channel 1, EXG Channel 2, EXG Channel 3, EXG Channel 4, EXG Channel 5, EXG Channel 6, EXG Channel 7, Accel Channel 0, Accel Channel 1, Accel Channel 2, Other, Other, Other, Other, Other, Other, Other, Analog Channel 0, Analog Channel 1, Analog Channel 2, Timestamp, Other, Timestamp (Formatted)
25.0, -71784.70603045297, -70818.55187637232, -72917.53714293685, -84749.2989598869, -59041.171853682026, -39360.6396747398, -65440.69980868099, -45060.02158642073, 0.0, 0.0, 0.0, 192.0, 0.0, 0.0, 0.0, 0.0, 0.0, 0.0, 0.0, 0.0, 0.0, 1.6981680065155194E9, 0.0, 2023-10-24 14:20:06.515
1.0, -59706.11389948296, -60938.74555095978, -60517.59398193288, -71564.3401818681, -48507.107616318186, -29533.98579764197, -53191.653274494805, -31465.668256958517, 0.0, 0.0, 0.0, 192.0, 0.0, 0.0, 0.0, 0.0, 0.0, 0.0, 0.0, 0.0, 0.0, 1.6981680066503172E9, 0.0, 2023-10-24 14:20:06.650
2.0, -59205.21130623953, -60142.53170997283, -60506.64162714978, -71255.84140489595, -48856.979472277104, -29104.09469653305, -53755.07369697973, -32018.00221419361, 0.0, 0.0, 0.0, 192.0, 0.0, 0.0, 0.0, 0.0, 0.0, 0.0, 0.0, 0.0, 0.0, 1.698168006653314E9, 0.0, 2023-10-24 14:20:06.653
3.0, -58529.89805101133, -64622.000112772, -61704.38220553187, -70949.75661632499, -48193.423234632406, -33130.962625856715, -51428.90529977147, -29765.572221943406, 0.0, 0.0, 0.0, 192.0, 0.0, 0.0, 0.0, 0.0, 0.0, 0.0, 0.0, 0.0, 0.0, 1.698168006657307E9, 0.0, 2023-10-24 14:20:06.657
4.0, -58994.09907985915, -65807.64839740377, -61816.45385223078, -71248.55473620353, -47808.54854685647, -33891.52543443745, -50670.93529354755, -29025.528314772644, 0.0, 0.0, 0.0, 192.0, 0.0, 0.0, 0.0, 0.0, 0.0, 0.0, 0.0, 0.0, 0.0, 1.6981680066602342E9, 0.0, 2023-10-24 14:20:06.660
5.0, -59688.612483574456, -61725.88458369787, -60709.70722552625, -71557.67936202043, -48403.686094723475, -30189.473055538307, -52764.086754809236, -31055.312580503534, 0.0, 0.0, 0.0, 192.0, 0.0, 0.0, 0.0, 0.0, 0.0, 0.0, 0.0, 0.0, 0.0, 1.698168006663274E9, 0.0, 2023-10-24 14:20:06.663
6.0, -59359.326584258866, -59738.099245798505, -60355.85675905428, -71314.91706549133, -48860.265178712034, -28694.454275900636, -53907.24437323146, -32181.907556284375, 0.0, 0.0, 0.0, 192.0, 0.0, 0.0, 0.0, 0.0, 0.0, 0.0, 0.0, 0.0, 0.0, 1.698168006668236E9, 0.0, 2023-10-24 14:20:06.668
7.0, -58558.10595251393, -63760.02743959754, -61462.08929563634, -70922.73335727851, -48277.13051761753, -32395.254957110283, -51827.995697020975, -30185.248575836253, -0.388, -0.096, 0.928, 192.0, 243.0, 224.0, 253.0, 0.0, 29.0, 0.0, 0.0, 0.0, 0.0, 1.6981680066712685E9, 0.0, 2023-10-24 14:20:06.671
8.0, -58811.64178987048, -66085.01119434967, -61894.88612352445, -71122.62500794232, -47735.59245295435, -34188.401304292835, -50479.89493368804, -28868.03792334055, -0.388, -0.096, 0.928, 192.0, 0.0, 0.0, 0.0, 0.0, 0.0, 0.0, 0.0, 0.0, 0.0, 1.6981680066743577E9, 0.0, 2023-10-24 14:20:06.674
9.0, -59566.30373791501, -62478.80309567489, -60841.403703856915, -71471.4686836563, -48186.18126942888, -30845.094423901373, -52269.263836057646, -30575.264164836906, -0.388, -0.096, 0.928, 192.0, 0.0, 0.0, 0.0, 0.0, 0.0, 0.0, 0.0, 0.0, 0.0, 1.698168006679424E9, 0.0, 2023-10-24 14:20:06.679
10.0, -59456.780190084006, -59517.1969553467, -60213.99023699645, -71344.01903677214, -48817.81921599141, -28425.071051725277, -53921.88476584969, -32173.637410835912, -0.388, -0.096, 0.928, 192.0, 0.0, 0.0, 0.0, 0.0, 0.0, 0.0, 0.0, 0.0, 0.0, 1.698168006683262E9, 0.0, 2023-10-24 14:20:06.683
11.0, -58630.45854931576, -62847.85274837646, -61208.46405130197, -70923.89564799018, -48434.55385381626, -31561.646647649606, -52264.21234181075, -30581.634412006668, -0.388, -0.096, 0.928, 192.0, 0.0, 0.0, 0.0, 0.0, 0.0, 0.0, 0.0, 0.0, 0.0, 1.698168006687292E9, 0.0, 2023-10-24 14:20:06.687
12.0, -58650.843340259, -66148.9148317474, -61918.93660055836, -71004.85366640732, -47750.63517697277, -34261.62561912842, -50416.46068292388, -28786.722277012144, -0.388, -0.096, 0.928, 192.0, 0.0, 0.0, 0.0, 0.0, 0.0, 0.0, 0.0, 0.0, 0.0, 1.6981680066912894E9, 0.0, 2023-10-24 14:20:06.691
13.0, -59416.41293959772, -63263.86341617864, -61003.677368602446, -71382.44168549082, -47995.34207526947, -31499.441742830488, -51790.75769075843, -30097.450923615805, -0.388, -0.096, 0.928, 192.0, 0.0, 0.0, 0.0, 0.0, 0.0, 0.0, 0.0, 0.0, 0.0, 1.6981680066954253E9, 0.0, 2023-10-24 14:20:06.695
14.0, -59522.069635637956, -59570.03647923905, -60177.31102434528, -71383.17929305784, -48728.903976548194, -28411.57059807427, -53844.63713701214, -32084.96804058171, -0.388, -0.096, 0.928, 192.0, 0.0, 0.0, 0.0, 0.0, 0.0, 0.0, 0.0, 0.0, 0.0, 1.698168006699382E9, 0.0, 2023-10-24 14:20:06.699
15.0, -58721.20663180431, -61949.69260092886, -60977.726993289834, -70956.86447106177, -48559.65656753261, -30775.982830045563, -52717.28220191982, -31034.972493049205, -0.388, -0.096, 0.928, 192.0, 0.0, 0.0, 0.0, 0.0, 0.0, 0.0, 0.0, 0.0, 0.0, 1.6981680067023685E9, 0.0, 2023-10-24 14:20:06.702
16.0, -58531.10504521192, -65987.53523678008, -61930.02306580819, -70926.71196779156, -47824.46298890865, -34188.37895254838, -50523.81611154272, -28911.892045961864, -0.388, -0.096, 0.928, 192.0, 0.0, 0.0, 0.0, 0.0, 0.0, 0.0, 0.0, 0.0, 0.0, 1.698168006708364E9, 0.0, 2023-10-24 14:20:06.708
17.0, -59279.77672574243, -64051.89651869494, -61231.709865535486, -71316.77226028113, -47919.27908888806, -32212.127114787952, -51382.391319559974, -29714.49848586303, -0.39, -0.094, 0.924, 192.0, 243.0, 208.0, 253.0, 16.0, 28.0, 224.0, 0.0, 0.0, 0.0, 1.6981680067143953E9, 0.0, 2023-10-24 14:20:06.714
18.0, -59558.36886863338, -59853.233081487786, -60206.03301597036, -71395.38334553044, -48652.95274888906, -28597.17948403114, -53616.00114297881, -31863.86458442981, -0.39, -0.094, 0.924, 192.0, 0.0, 0.0, 0.0, 0.0, 0.0, 0.0, 0.0, 0.0, 0.0, 1.69816800671731E9, 0.0, 2023-10-24 14:20:06.717
19.0, -58826.50569993326, -61090.93857895596, -60717.664446552335, -70990.0568115779, -48678.724310246034, -29982.048866993056, -53112.81867180094, -31399.328279415167, -0.39, -0.094, 0.924, 192.0, 0.0, 0.0, 0.0, 0.0, 0.0, 0.0, 0.0, 0.0, 0.0, 1.6981680067204099E9, 0.0, 2023-10-24 14:20:06.720
20.0, -58429.62812538483, -65560.25928977242, -61824.679294190326, -70852.03478956637, -47901.48710030164, -33862.356407923275, -50741.320936837314, -29115.874065860997, -0.39, -0.094, 0.924, 192.0, 0.0, 0.0, 0.0, 0.0, 0.0, 0.0, 0.0, 0.0, 0.0, 1.6981680067243297E9, 0.0, 2023-10-24 14:20:06.724
21.0, -59111.17751731605, -64738.94443976217, -61407.036949042915, -71222.67141612429, -47779.468927320115, -32836.03135776894, -50998.455405051165, -29354.702455365954, -0.39, -0.094, 0.924, 192.0, 0.0, 0.0, 0.0, 0.0, 0.0, 0.0, 0.0, 0.0, 0.0, 1.6981680067273867E9, 0.0, 2023-10-24 14:20:06.727
22.0, -59570.50586587261, -60368.75371560499, -60286.27577856491, -71402.89353166742, -48504.76068315037, -28988.223253276738, -53300.908601392344, -31551.923638811546, -0.39, -0.094, 0.924, 192.0, 0.0, 0.0, 0.0, 0.0, 0.0, 0.0, 0.0, 0.0, 0.0, 1.6981680067304003E9, 0.0, 2023-10-24 14:20:06.730
23.0, -58970.45093422544, -60363.5457591469, -60500.60665614685, -71053.2675448975, -48748.908787835695, -29297.906672705016, -53464.41161208291, -31735.163239856156, -0.39, -0.094, 0.924, 192.0, 0.0, 0.0, 0.0, 0.0, 0.0, 0.0, 0.0, 0.0, 0.0, 1.698168006734475E9, 0.0, 2023-10-24 14:20:06.734
24.0, -58411.344398420384, -64947.039180641084, -61697.54257172854, -70805.34199539924, -48040.64906128038, -33367.62289614951, -51055.16178073428, -29431.614808036666, -0.39, -0.094, 0.924, 192.0, 0.0, 0.0, 0.0, 0.0, 0.0, 0.0, 0.0, 0.0, 0.0, 1.6981680067393808E9, 0.0, 2023-10-24 14:20:06.739
25.0, -58967.65696616852, -65339.11113013162, -61586.67791923022, -71125.01664459905, -47739.63811870076, -33382.39739923446, -50677.79727909533, -29033.865515454476, -0.39, -0.094, 0.924, 192.0, 0.0, 0.0, 0.0, 0.0, 0.0, 0.0, 0.0, 0.0, 0.0, 1.698168006743418E9, 0.0, 2023-10-24 14:20:06.743
26.0, -59551.21631040768, -61048.693781935435, -60421.43677728615, -71385.48152273674, -48381.15553631253, -29536.243323831957, -52901.14765180918, -31167.585392902543, -0.39, -0.094, 0.924, 192.0, 0.0, 0.0, 0.0, 0.0, 0.0, 0.0, 0.0, 0.0, 0.0, 1.698168006747383E9, 0.0, 2023-10-24 14:20:06.747
27.0, -59133.01517164888, -59812.79877576814, -60307.778156730914, -71146.07198787594, -48830.89498649776, -28738.17428805522, -53743.62960381861, -31982.150016087297, -0.39, -0.094, 0.924, 192.0, 0.0, 0.0, 0.0, 0.0, 0.0, 0.0, 0.0, 0.0, 0.0, 1.6981680067504015E9, 0.0, 2023-10-24 14:20:06.750
28.0, -58443.70972439167, -64143.292801772695, -61519.533278886476, -70805.78903028835, -48202.65450509245, -32704.04430676035, -51501.52611750676, -29842.305760658477, -0.398, -0.096, 0.924, 192.0, 243.0, 144.0, 253.0, 0.0, 28.0, 224.0, 0.0, 0.0, 0.0, 1.6981680067544005E9, 0.0, 2023-10-24 14:20:06.754
29.0, -58809.25015321376, -65754.60770781133, -61736.16638614731, -71020.9692741596, -47668.96190273308, -33846.37491063773, -50469.233151582855, -28858.13610054685, -0.398, -0.096, 0.924, 192.0, 0.0, 0.0, 0.0, 0.0, 0.0, 0.0, 0.0, 0.0, 0.0, 1.69816800675845E9, 0.0, 2023-10-24 14:20:06.758
30.0, -59447.99595451307, -61809.88243936091, -60586.63852055532, -71321.64494057238, -48141.90246366292, -30186.63438399248, -52437.99715495076, -30723.07625091985, -0.398, -0.096, 0.924, 192.0, 0.0, 0.0, 0.0, 0.0, 0.0, 0.0, 0.0, 0.0, 0.0, 1.6981680067623806E9, 0.0, 2023-10-24 14:20:06.762
31.0, -59205.23365798398, -59442.05039048796, -60166.850407940205, -71173.96696495617, -48760.62110193028, -28354.864222391156, -53848.52634054737, -32106.336308280985, -0.398, -0.096, 0.924, 192.0, 0.0, 0.0, 0.0, 0.0, 0.0, 0.0, 0.0, 0.0, 0.0, 1.6981680067673829E9, 0.0, 2023-10-24 14:20:06.767
32.0, -58470.218893315665, -63262.74582895587, -61280.66018589261, -70812.69571932504, -48324.560919351694, -31935.971312042635, -51962.97788178657, -30308.026708129255, -0.398, -0.096, 0.924, 192.0, 0.0, 0.0, 0.0, 0.0, 0.0, 0.0, 0.0, 0.0, 0.0, 1.6981680067723813E9, 0.0, 2023-10-24 14:20:06.772
33.0, -58677.66543360537, -66006.5342195671, -61827.92029713635, -70953.26584020446, -47703.02596128297, -34100.55894858348, -50388.45394712138, -28766.829224446923, -0.398, -0.096, 0.924, 192.0, 0.0, 0.0, 0.0, 0.0, 0.0, 0.0, 0.0, 0.0, 0.0, 1.6981680067765267E9, 0.0, 2023-10-24 14:20:06.776
34.0, -59381.343052547345, -62640.56267029794, -60788.16184856437, -71284.65280349884, -48043.800657248576, -30888.25564244457, -51985.32962624188, -30283.66330667297, -0.398, -0.096, 0.924, 192.0, 0.0, 0.0, 0.0, 0.0, 0.0, 0.0, 0.0, 0.0, 0.0, 1.698168006779425E9, 0.0, 2023-10-24 14:20:06.779
35.0, -59312.38792090272, -59340.238194494035, -60065.41819160202, -71228.6616836383, -48738.425819686156, -28160.33699039662, -53839.47388404297, -32073.501595676138, -0.398, -0.096, 0.924, 192.0, 0.0, 0.0, 0.0, 0.0, 0.0, 0.0, 0.0, 0.0, 0.0, 1.6981680067824728E9, 0.0, 2023-10-24 14:20:06.782
36.0, -58555.40139143484, -62366.64204199816, -61041.205947542905, -70854.51583320092, -48463.16408671905, -31121.361985368967, -52428.89999495745, -30746.880858764755, -0.398, -0.096, 0.924, 192.0, 0.0, 0.0, 0.0, 0.0, 0.0, 0.0, 0.0, 0.0, 0.0, 1.698168006800438E9, 0.0, 2023-10-24 14:20:06.800
37.0, -58539.352838915926, -66013.77618477061, -61869.29337612312, -70868.93270837459, -47724.30482200442, -34166.586001704454, -50393.036054734715, -28786.31994561195, -0.398, -0.096, 0.924, 192.0, 0.0, 0.0, 0.0, 0.0, 0.0, 0.0, 0.0, 0.0, 0.0, 1.6981680068054984E9, 0.0, 2023-10-24 14:20:06.805
38.0, -59279.977891442526, -63478.864846094235, -61018.31776122067, -71228.05818653801, -47904.39282708083, -31625.147953647134, -51539.03234470276, -29853.57103986395, -0.394, -0.094, 0.926, 192.0, 243.0, 176.0, 253.0, 16.0, 28.0, 240.0, 0.0, 0.0, 0.0, 1.6981680068085103E9, 0.0, 2023-10-24 14:20:06.808
39.0, -59400.23027661208, -59519.92386817025, -60084.148953455566, -71280.04834414105, -48671.504696786964, -28244.82658443768, -53715.93579243849, -31950.81287036096, -0.394, -0.094, 0.926, 192.0, 0.0, 0.0, 0.0, 0.0, 0.0, 0.0, 0.0, 0.0, 0.0, 1.6981680068114476E9, 0.0, 2023-10-24 14:20:06.811
41.0, -58411.634971098305, -65747.61161179682, -61822.73469242272, -70794.32258538278, -47839.48336118262, -33998.14325548926, -50547.01722228733, -28926.331272879994, -0.394, -0.094, 0.926, 192.0, 0.0, 0.0, 0.0, 0.0, 0.0, 0.0, 0.0, 0.0, 0.0, 1.6981680068144598E9, 0.0, 2023-10-24 14:20:06.814
42.0, -59099.93458985503, -64212.069119461674, -61200.90916167607, -71140.03701687302, -47805.86633752184, -32314.878084049, -51124.720409479196, -29466.438825898033, -0.394, -0.094, 0.926, 192.0, 0.0, 0.0, 0.0, 0.0, 0.0, 0.0, 0.0, 0.0, 0.0, 1.6981680068184683E9, 0.0, 2023-10-24 14:20:06.818
43.0, -59412.099052917845, -59895.83550641961, -60126.97489583193, -71297.34859434946, -48570.81008801581, -28539.40022461417, -53464.00928068272, -31707.1341523092, -0.394, -0.094, 0.926, 192.0, 0.0, 0.0, 0.0, 0.0, 0.0, 0.0, 0.0, 0.0, 0.0, 1.6981680068234653E9, 0.0, 2023-10-24 14:20:06.823
44.0, -58765.77601024819, -60682.080469379485, -60548.327630558924, -70950.00248551399, -48715.895261275204, -29570.821472504318, -53262.10597301793, -31527.493182121896, -0.394, -0.094, 0.926, 192.0, 0.0, 0.0, 0.0, 0.0, 0.0, 0.0, 0.0, 0.0, 0.0, 1.6981680068275006E9, 0.0, 2023-10-24 14:20:06.827
45.0, -58349.206548834634, -65274.3581264446, -61718.79908070554, -70747.47332900445, -47937.138132707856, -33642.81757388324, -50811.01367604896, -29187.891386495998, -0.394, -0.094, 0.926, 192.0, 0.0, 0.0, 0.0, 0.0, 0.0, 0.0, 0.0, 0.0, 0.0, 1.698168006831499E9, 0.0, 2023-10-24 14:20:06.831
46.0, -58965.71236440091, -64909.89058135636, -61400.51023966196, -71074.9710887636, -47685.41278665219, -32972.44405417968, -50789.44424264959, -29136.571781226612, -0.394, -0.094, 0.926, 192.0, 0.0, 0.0, 0.0, 0.0, 0.0, 0.0, 0.0, 0.0, 0.0, 1.6981680068344965E9, 0.0, 2023-10-24 14:20:06.834
47.0, -59430.38277988229, -60498.773813101514, -60237.817196585806, -71296.61098678244, -48372.438355974955, -29017.50403851319, -53102.49216586258, -31344.767671199763, -0.394, -0.094, 0.926, 192.0, 0.0, 0.0, 0.0, 0.0, 0.0, 0.0, 0.0, 0.0, 0.0, 1.6981680068386092E9, 0.0, 2023-10-24 14:20:06.838
48.0, -58885.71547099537, -60020.22296431339, -60337.23775592301, -71004.8089629184, -48738.22465398606, -28939.451746875257, -53546.12958981152, -31801.21264472159, -0.388, -0.094, 0.924, 192.0, 243.0, 224.0, 253.0, 16.0, 28.0, 224.0, 0.0, 0.0, 0.0, 1.6981680068425052E9, 0.0, 2023-10-24 14:20:06.842
49.0, -58312.639094905746, -64589.61243505627, -61572.730430690106, -70726.01565432736, -48069.30399767208, -33106.30865172251, -51170.11680246792, -29532.59998948574, -0.388, -0.094, 0.924, 192.0, 0.0, 0.0, 0.0, 0.0, 0.0, 0.0, 0.0, 0.0, 0.0, 1.6981680068465455E9, 0.0, 2023-10-24 14:20:06.846
50.0, -58806.70205434586, -65447.20416631749, -61572.26104405655, -70994.61656744678, -47663.91040848618, -33527.8625521496, -50509.913326491514, -28865.33336226146, -0.388, -0.094, 0.924, 192.0, 0.0, 0.0, 0.0, 0.0, 0.0, 0.0, 0.0, 0.0, 0.0, 1.698168006850535E9, 0.0, 2023-10-24 14:20:06.850
51.0, -59392.56362826391, -61220.95867645249, -60395.53110546245, -71285.7256872327, -48264.34531978909, -29655.48988050102, -52675.03740489929, -30925.136020795828, -0.388, -0.094, 0.924, 192.0, 0.0, 0.0, 0.0, 0.0, 0.0, 0.0, 0.0, 0.0, 0.0, 1.6981680068555372E9, 0.0, 2023-10-24 14:20:06.855
52.0, -59024.78802499629, -59539.1016649129, -60168.90676843009, -71087.39865868076, -48798.954343671125, -28467.740531890457, -53757.19711270298, -31991.023658636055, -0.388, -0.094, 0.924, 192.0, 0.0, 0.0, 0.0, 0.0, 0.0, 0.0, 0.0, 0.0, 0.0, 1.6981680068585017E9, 0.0, 2023-10-24 14:20:06.858
53.0, -58356.0238308935, -63787.22951259965, -61372.16822769264, -70744.0535121028, -48251.47071498284, -32412.801076507698, -51608.50156646986, -29942.665093262804, -0.388, -0.094, 0.924, 192.0, 0.0, 0.0, 0.0, 0.0, 0.0, 0.0, 0.0, 0.0, 0.0, 1.6981680068625517E9, 0.0, 2023-10-24 14:20:06.862
54.0, -58685.265026720175, -65847.76977870104, -61708.45022302273, -70927.82955501432, -47660.423536351154, -33946.175449630675, -50339.30246106416, -28702.925587049198, -0.388, -0.094, 0.924, 192.0, 0.0, 0.0, 0.0, 0.0, 0.0, 0.0, 0.0, 0.0, 0.0, 1.6981680068665357E9, 0.0, 2023-10-24 14:20:06.866
55.0, -59350.78821787694, -62043.72638985234, -60586.9514449777, -71257.74130317465, -48073.796698307604, -30375.73014208438, -52215.23966970917, -30479.621050312646, -0.388, -0.094, 0.924, 192.0, 0.0, 0.0, 0.0, 0.0, 0.0, 0.0, 0.0, 0.0, 0.0, 1.6981680068705444E9, 0.0, 2023-10-24 14:20:06.870
56.0, -59162.385363863155, -59296.51818233945, -60056.16456939752, -71157.60548801487, -48744.997232556016, -28187.784932587736, -53833.86359618469, -32045.606618595913, -0.388, -0.094, 0.924, 192.0, 0.0, 0.0, 0.0, 0.0, 0.0, 0.0, 0.0, 0.0, 0.0, 1.6981680068745403E9, 0.0, 2023-10-24 14:20:06.874
57.0, -58412.685503087705, -62886.29774883959, -61130.054131752746, -70767.0534571473, -48362.156553525514, -31620.49879080043, -52068.43341212672, -30368.33171466967, -0.388, -0.094, 0.924, 192.0, 0.0, 0.0, 0.0, 0.0, 0.0, 0.0, 0.0, 0.0, 0.0, 1.69816800687858E9, 0.0, 2023-10-24 14:20:06.878
58.0, -58553.36738268941, -66011.1833824138, -61795.666729887336, -70864.68587692808, -47694.53229838995, -34169.78230116157, -50298.15289952194, -28666.693409287145, -0.392, -0.098, 0.922, 192.0, 243.0, 192.0, 252.0, 240.0, 28.0, 208.0, 0.0, 0.0, 0.0, 1.6981680068835514E9, 0.0, 2023-10-24 14:20:06.883
59.0, -59244.595079969775, -62874.5407312561, -60794.95677887878, -71203.56067461499, -47963.31202546502, -31125.050023204094, -51750.97158562799, -30038.66583569835, -0.392, -0.098, 0.922, 192.0, 0.0, 0.0, 0.0, 0.0, 0.0, 0.0, 0.0, 0.0, 0.0, 1.6981680068875732E9, 0.0, 2023-10-24 14:20:06.887
60.0, -59254.42984753011, -59293.07601369334, -59998.76528963629, -71204.49944788212, -48708.45213037159, -28107.56452173764, -53769.35646168667, -31980.250117808595, -0.392, -0.098, 0.922, 192.0, 0.0, 0.0, 0.0, 0.0, 0.0, 0.0, 0.0, 0.0, 0.0, 1.6981680068915951E9, 0.0, 2023-10-24 14:20:06.891
61.0, -58511.54726881353, -61983.26492110073, -60880.02751827568, -70807.97950124496, -48522.530319992344, -30796.792304133454, -52530.35456304009, -30811.879731640787, -0.392, -0.098, 0.922, 192.0, 0.0, 0.0, 0.0, 0.0, 0.0, 0.0, 0.0, 0.0, 0.0, 1.6981680068955455E9, 0.0, 2023-10-24 14:20:06.895
62.0, -58419.30161944647, -65901.79394504952, -61774.11964823242, -70774.94362294002, -47745.091944347856, -34131.024376276066, -50350.29951933617, -28712.849761587357, -0.392, -0.098, 0.922, 192.0, 0.0, 0.0, 0.0, 0.0, 0.0, 0.0, 0.0, 0.0, 0.0, 1.6981680069015884E9, 0.0, 2023-10-24 14:20:06.901
63.0, -59142.7605322314, -63689.03829920749, -61009.06413901617, -71153.17984261274, -47822.116055740844, -31866.59149725336, -51325.126150265474, -29636.75911864747, -0.392, -0.098, 0.922, 192.0, 0.0, 0.0, 0.0, 0.0, 0.0, 0.0, 0.0, 0.0, 0.0, 1.6981680069045928E9, 0.0, 2023-10-24 14:20:06.904
64.0, -59332.79506359042, -59555.619604065374, -60025.3191620492, -71257.98717236366, -48605.23177447698, -28291.65348907155, -53603.43946259493, -31827.72181364558, -0.392, -0.098, 0.922, 192.0, 0.0, 0.0, 0.0, 0.0, 0.0, 0.0, 0.0, 0.0, 0.0, 1.6981680069086113E9, 0.0, 2023-10-24 14:20:06.908
65.0, -58602.02713036861, -61121.33695141518, -60636.23704150165, -70866.69753392907, -48620.766236873416, -30024.964216347245, -52959.03866994842, -31228.583303521074, -0.392, -0.098, 0.922, 192.0, 0.0, 0.0, 0.0, 0.0, 0.0, 0.0, 0.0, 0.0, 0.0, 1.6981680069115913E9, 0.0, 2023-10-24 14:20:06.911
66.0, -58300.30093196642, -65539.85214708473, -61697.229647306165, -70705.02736628383, -47815.74580857108, -33882.58473665533, -50528.867605789615, -28883.930013648274, -0.392, -0.098, 0.922, 192.0, 0.0, 0.0, 0.0, 0.0, 0.0, 0.0, 0.0, 0.0, 0.0, 1.698168006914672E9, 0.0, 2023-10-24 14:20:06.914
67.0, -58975.033041838775, -64394.86168561717, -61173.39416425159, -71060.01777172301, -47721.89083360325, -32523.19634237246, -50914.85988078832, -29231.87961958404, -0.392, -0.098, 0.922, 192.0, 0.0, 0.0, 0.0, 0.0, 0.0, 0.0, 0.0, 0.0, 0.0, 1.6981680069186244E9, 0.0, 2023-10-24 14:20:06.918
68.0, -59365.205093050616, -60026.54850799424, -60098.90110479607, -71264.2680125556, -48497.56342143577, -28650.935429446155, -53290.44798498726, -31515.445591860487, -0.392, -0.098, 0.922, 192.0, 0.0, 0.0, 0.0, 0.0, 0.0, 0.0, 0.0, 0.0, 0.0, 1.6981680069226184E9, 0.0, 2023-10-24 14:20:06.922
69.0, -58759.69633575634, -60385.33870999083, -60431.85269020232, -70932.27755216093, -48732.81553182787, -29313.396431612546, -53317.203023100265, -31569.402702975596, -0.386, -0.094, 0.924, 192.0, 243.0, 240.0, 253.0, 16.0, 28.0, 224.0, 0.0, 0.0, 0.0, 1.6981680069266253E9, 0.0, 2023-10-24 14:20:06.926
70.0, -58274.79759154291, -64998.02350974364, -61582.498143017074, -70670.20334842245, -47955.377156183386, -33431.8394579696, -50831.89020537022, -29175.642630534487, -0.386, -0.094, 0.924, 192.0, 0.0, 0.0, 0.0, 0.0, 0.0, 0.0, 0.0, 0.0, 0.0, 1.6981680069306335E9, 0.0, 2023-10-24 14:20:06.930
71.0, -58829.03144705671, -65029.07008279206, -61342.015724422425, -70960.06077051887, -47637.647108751196, -33116.09871579394, -50568.161972542046, -28894.211816097715, -0.386, -0.094, 0.924, 192.0, 0.0, 0.0, 0.0, 0.0, 0.0, 0.0, 0.0, 0.0, 0.0, 1.6981680069346273E9, 0.0, 2023-10-24 14:20:06.934
72.0, -59341.95927881709, -60659.996945857645, -60214.50432711891, -71237.53532618706, -48308.31120113268, -29172.088703166093, -52891.804622626856, -31122.45722084728, -0.386, -0.094, 0.924, 192.0, 0.0, 0.0, 0.0, 0.0, 0.0, 0.0, 0.0, 0.0, 0.0, 1.6981680069396927E9, 0.0, 2023-10-24 14:20:06.939
73.0, -58887.12363089605, -59783.048603898125, -60228.80944357031, -70996.47176223657, -48730.91563354917, -28716.940130822677, -53595.52694505775, -31820.703365886617, -0.386, -0.094, 0.924, 192.0, 0.0, 0.0, 0.0, 0.0, 0.0, 0.0, 0.0, 0.0, 0.0, 1.6981680069426532E9, 0.0, 2023-10-24 14:20:06.942
74.0, -58251.57412905385, -64255.833835105164, -61390.541361634896, -70649.79620573476, -48055.624730065436, -32814.35016564729, -51229.10305608548, -29554.61645777422, -0.386, -0.094, 0.924, 192.0, 0.0, 0.0, 0.0, 0.0, 0.0, 0.0, 0.0, 0.0, 0.0, 1.6981680069466267E9, 0.0, 2023-10-24 14:20:06.946
75.0, -58651.066857703554, -65493.62873955116, -61462.8045514589, -70852.54887968885, -47556.689090334075, -33593.86725352612, -50313.374437496, -28654.95874344811, -0.386, -0.094, 0.924, 192.0, 0.0, 0.0, 0.0, 0.0, 0.0, 0.0, 0.0, 0.0, 0.0, 1.698168006950676E9, 0.0, 2023-10-24 14:20:06.950
76.0, -59293.27717939344, -61418.3469317373, -60360.26005271197, -71185.32165113946, -48147.892731176944, -29820.401051092274, -52424.22848036629, -30677.813968397855, -0.386, -0.094, 0.924, 192.0, 0.0, 0.0, 0.0, 0.0, 0.0, 0.0, 0.0, 0.0, 0.0, 1.6981680069547062E9, 0.0, 2023-10-24 14:20:06.954
77.0, -59040.30013564827, -59398.08450914437, -60090.56390411424, -71061.4259316237, -48777.67548294968, -28307.679689846005, -53749.15048469907, -31970.28123978153, -0.386, -0.094, 0.924, 192.0, 0.0, 0.0, 0.0, 0.0, 0.0, 0.0, 0.0, 0.0, 0.0, 1.6981680069586773E9, 0.0, 2023-10-24 14:20:06.958
78.0, -58288.454507405106, -63393.59294099724, -61188.839219670204, -70649.99737143486, -48229.834226350096, -32079.15658702333, -51671.28761664482, -29988.26265195163, -0.386, -0.094, 0.924, 192.0, 0.0, 0.0, 0.0, 0.0, 0.0, 0.0, 0.0, 0.0, 0.0, 1.6981680069636655E9, 0.0, 2023-10-24 14:20:06.963
79.0, -58499.72319599667, -65782.12270523582, -61571.65754695625, -70754.42472153006, -47565.070994504815, -33927.39998428822, -50167.39519445839, -28523.30696860635, -0.39, -0.094, 0.922, 192.0, 243.0, 208.0, 253.0, 16.0, 28.0, 208.0, 0.0, 0.0, 0.0, 1.6981680069666777E9, 0.0, 2023-10-24 14:20:06.966
80.0, -59211.134518520186, -62218.56173498175, -60546.49478751359, -71122.55795270896, -47982.6239326744, -30552.152461070116, -51944.80591354441, -30222.17365767642, -0.39, -0.094, 0.922, 192.0, 0.0, 0.0, 0.0, 0.0, 0.0, 0.0, 0.0, 0.0, 0.0, 1.69816800696972E9, 0.0, 2023-10-24 14:20:06.969
81.0, -59146.42621832207, -59214.30846623283, -59994.78667912325, -71105.83884785639, -48701.41133086817, -28103.250635057764, -53767.903598297074, -31994.354068559896, -0.39, -0.094, 0.922, 192.0, 0.0, 0.0, 0.0, 0.0, 0.0, 0.0, 0.0, 0.0, 0.0, 1.6981680069736896E9, 0.0, 2023-10-24 14:20:06.973
82.0, -58375.46984856962, -62506.765127988474, -60973.99425196579, -70690.96811902143, -48355.3616232111, -31290.654097873463, -52150.17374159977, -30450.429672054015, -0.39, -0.094, 0.922, 192.0, 0.0, 0.0, 0.0, 0.0, 0.0, 0.0, 0.0, 0.0, 0.0, 1.6981680069786804E9, 0.0, 2023-10-24 14:20:06.978
83.0, -58364.83041820889, -65855.41407530475, -61613.63412304332, -70669.10811294414, -47563.93105553759, -34046.60183746837, -50145.15520872536, -28503.145695107665, -0.39, -0.094, 0.922, 192.0, 0.0, 0.0, 0.0, 0.0, 0.0, 0.0, 0.0, 0.0, 0.0, 1.6981680069826767E9, 0.0, 2023-10-24 14:20:06.982
84.0, -59106.14837481361, -63031.56173605463, -60722.73829254369, -71052.3734751193, -47810.60490734636, -31247.783452008185, -51481.588361452625, -29765.259297521032, -0.39, -0.094, 0.922, 192.0, 0.0, 0.0, 0.0, 0.0, 0.0, 0.0, 0.0, 0.0, 0.0, 1.698168006986688E9, 0.0, 2023-10-24 14:20:06.986
85.0, -59258.654327232165, -59311.40444414669, -59968.232806710344, -71160.82413921645, -48652.505713999955, -28080.876538858003, -53679.547152465246, -31884.45054107315, -0.39, -0.094, 0.922, 192.0, 0.0, 0.0, 0.0, 0.0, 0.0, 0.0, 0.0, 0.0, 0.0, 1.698168006990713E9, 0.0, 2023-10-24 14:20:06.990
86.0, -58472.76699218357, -61616.42809110023, -60737.7363130732, -70744.65700920309, -48516.8529769007, -30458.9903901804, -52620.67796238398, -30884.63465984281, -0.39, -0.094, 0.922, 192.0, 0.0, 0.0, 0.0, 0.0, 0.0, 0.0, 0.0, 0.0, 0.0, 1.698168006994707E9, 0.0, 2023-10-24 14:20:06.994
87.0, -58230.60819275477, -65662.80909333337, -61597.29499784649, -70599.79535338824, -47659.97650146204, -33938.397042560224, -50275.64469285544, -28619.419469764172, -0.39, -0.094, 0.922, 192.0, 0.0, 0.0, 0.0, 0.0, 0.0, 0.0, 0.0, 0.0, 0.0, 1.6981680069977365E9, 0.0, 2023-10-24 14:20:06.997
88.0, -58936.56568963119, -63791.990434168634, -60915.74560591527, -70968.5991369008, -47696.34278969083, -31961.295838510498, -51054.82650456745, -29350.72384485291, -0.39, -0.094, 0.922, 192.0, 0.0, 0.0, 0.0, 0.0, 0.0, 0.0, 0.0, 0.0, 0.0, 1.6981680070027256E9, 0.0, 2023-10-24 14:20:07.002
89.0, -59257.62614698722, -59612.46009021522, -59988.75170812032, -71167.88729046432, -48523.22322407046, -28312.485314903894, -53438.4612367703, -31648.997264980946, -0.394, -0.09, 0.924, 192.0, 243.0, 176.0, 253.0, 48.0, 28.0, 224.0, 0.0, 0.0, 0.0, 1.698168007006754E9, 0.0, 2023-10-24 14:20:07.006
90.0, -58589.26428428463, -60793.97330212275, -60511.35784522985, -70809.94645475704, -48576.62154157419, -29691.185616396146, -53035.52633947448, -31282.80863556965, -0.394, -0.09, 0.924, 192.0, 0.0, 0.0, 0.0, 0.0, 0.0, 0.0, 0.0, 0.0, 0.0, 1.6981680070107317E9, 0.0, 2023-10-24 14:20:07.010
91.0, -58169.34206120278, -65268.0549345082, -61530.8209098364, -70557.39409415652, -47722.62844117027, -33629.22771325442, -50510.069788702705, -28856.61618192389, -0.394, -0.09, 0.924, 192.0, 0.0, 0.0, 0.0, 0.0, 0.0, 0.0, 0.0, 0.0, 0.0, 1.6981680070147405E9, 0.0, 2023-10-24 14:20:07.014
92.0, -58779.96936797731, -64500.4736781685, -61103.27674189529, -70882.8801969147, -47559.57246536881, -32620.51583773087, -50670.75647959191, -28992.917119612353, -0.394, -0.09, 0.924, 192.0, 0.0, 0.0, 0.0, 0.0, 0.0, 0.0, 0.0, 0.0, 0.0, 1.6981680070187616E9, 0.0, 2023-10-24 14:20:07.018
93.0, -59273.78645822841, -60154.04285836731, -60088.66400583554, -71177.4985405801, -48384.79887065874, -28748.50079399357, -53112.90807877875, -31336.653987962483, -0.394, -0.09, 0.924, 192.0, 0.0, 0.0, 0.0, 0.0, 0.0, 0.0, 0.0, 0.0, 0.0, 1.6981680070237856E9, 0.0, 2023-10-24 14:20:07.023
94.0, -58745.43592279386, -60110.300494468276, -60320.161023159155, -70901.65566225717, -48717.236365942525, -29040.7051492578, -53401.71496888578, -31633.26163688441, -0.394, -0.09, 0.924, 192.0, 0.0, 0.0, 0.0, 0.0, 0.0, 0.0, 0.0, 0.0, 0.0, 1.6981680070267272E9, 0.0, 2023-10-24 14:20:07.026
95.0, -58163.30709019984, -64666.077752837875, -61409.45093744409, -70564.32313493766, -47927.79510352553, -33144.731300441184, -50894.765662522994, -29227.11869801506, -0.394, -0.09, 0.924, 192.0, 0.0, 0.0, 0.0, 0.0, 0.0, 0.0, 0.0, 0.0, 0.0, 1.698168007029762E9, 0.0, 2023-10-24 14:20:07.029
96.0, -58650.597471069996, -65087.65400500942, -61255.87210129167, -70811.77929780236, -47535.1196569347, -33188.02662945112, -50386.35288314258, -28716.98483431159, -0.394, -0.09, 0.924, 192.0, 0.0, 0.0, 0.0, 0.0, 0.0, 0.0, 0.0, 0.0, 0.0, 1.6981680070347795E9, 0.0, 2023-10-24 14:20:07.034
97.0, -59266.1868651136, -60838.98971545574, -60192.66667278608, -71160.46651130516, -48250.50958997126, -29319.252588659834, -52691.98002719641, -30927.482953963634, -0.394, -0.09, 0.924, 192.0, 0.0, 0.0, 0.0, 0.0, 0.0, 0.0, 0.0, 0.0, 0.0, 1.6981680070387764E9, 0.0, 2023-10-24 14:20:07.038
98.0, -58909.63183756255, -59586.30854920251, -60137.25669828137, -70991.62143368977, -48774.903866637214, -28507.660747487636, -53651.227492240374, -31864.713950719113, -0.394, -0.09, 0.924, 192.0, 0.0, 0.0, 0.0, 0.0, 0.0, 0.0, 0.0, 0.0, 0.0, 1.6981680070428338E9, 0.0, 2023-10-24 14:20:07.042
99.0, -58217.66653271515, -63925.18447937781, -61264.54457814033, -70601.85171387813, -48081.977436778245, -32506.074906119695, -51348.93075811038, -29658.708531702585, -0.394, -0.09, 0.924, 192.0, 0.0, 0.0, 0.0, 0.0, 0.0, 0.0, 0.0, 0.0, 0.0, 1.6981680070467868E9, 0.0, 2023-10-24 14:20:07.046
100.0, -58519.19156541724, -65541.21560349652, -61418.32457999285, -70746.95923888197, -47501.949668163026, -33646.57266695174, -50198.10649133998, -28534.438137345092, -0.39, -0.08600000000000001, 0.92, 192.0, 243.0, 208.0, 253.0, 80.0, 28.0, 192.0, 0.0, 0.0, 0.0, 1.69816800705079E9, 0.0, 2023-10-24 14:20:07.050
101.0, -59193.34252993376, -61604.96164619466, -60350.09000898481, -71116.32181600593, -48070.309826172575, -29997.963309045233, -52235.62446065241, -30485.253689915382, -0.39, -0.08600000000000001, 0.92, 192.0, 0.0, 0.0, 0.0, 0.0, 0.0, 0.0, 0.0, 0.0, 0.0, 1.6981680070538065E9, 0.0, 2023-10-24 14:20:07.053
102.0, -58994.322597303704, -59215.738977877976, -59979.699251615915, -71036.97312318959, -48756.55308443941, -28144.109623922068, -53757.77825805882, -31966.146167057297, -0.39, -0.08600000000000001, 0.92, 192.0, 0.0, 0.0, 0.0, 0.0, 0.0, 0.0, 0.0, 0.0, 0.0, 1.698168007057928E9, 0.0, 2023-10-24 14:20:07.057
103.0, -58233.80449221188, -63011.445166044854, -61031.75115963831, -70614.88278089557, -48268.41333727996, -31727.094260107788, -51814.562298603334, -30108.939720265833, -0.39, -0.08600000000000001, 0.92, 192.0, 0.0, 0.0, 0.0, 0.0, 0.0, 0.0, 0.0, 0.0, 0.0, 1.6981680070629334E9, 0.0, 2023-10-24 14:20:07.062
104.0, -58376.2298078811, -65753.8701002443, -61488.68787153815, -70665.06244719774, -47543.54626459435, -33894.07353330535, -50110.51000481963, -28451.44611018254, -0.39, -0.08600000000000001, 0.92, 192.0, 0.0, 0.0, 0.0, 0.0, 0.0, 0.0, 0.0, 0.0, 0.0, 1.6981680070668104E9, 0.0, 2023-10-24 14:20:07.066
105.0, -59114.48557549543, -62418.341626923284, -60516.58815343239, -71057.00028622155, -47922.363629622894, -30707.36297456777, -51764.76261195691, -30027.71348091525, -0.39, -0.08600000000000001, 0.92, 192.0, 0.0, 0.0, 0.0, 0.0, 0.0, 0.0, 0.0, 0.0, 0.0, 1.6981680070708265E9, 0.0, 2023-10-24 14:20:07.070
106.0, -59140.23478510795, -59144.43691306555, -59916.10853864057, -71117.46175497315, -48742.6055958993, -28011.11674441299, -53771.83750532121, -31969.27541128104, -0.39, -0.08600000000000001, 0.92, 192.0, 0.0, 0.0, 0.0, 0.0, 0.0, 0.0, 0.0, 0.0, 0.0, 1.6981680070738342E9, 0.0, 2023-10-24 14:20:07.073
107.0, -58374.5310753025, -62120.34816984513, -60826.33862809404, -70697.87480805813, -48468.93083678852, -30938.211791302183, -52338.28602293564, -30607.607139063733, -0.39, -0.08600000000000001, 0.92, 192.0, 0.0, 0.0, 0.0, 0.0, 0.0, 0.0, 0.0, 0.0, 0.0, 1.6981680070778024E9, 0.0, 2023-10-24 14:20:07.077
108.0, -58250.59065229782, -65713.10051835782, -61520.56145913142, -70596.84492312014, -47596.452843720064, -33948.92471419868, -50167.97633981423, -28508.73363122149, -0.39, -0.08600000000000001, 0.92, 192.0, 0.0, 0.0, 0.0, 0.0, 0.0, 0.0, 0.0, 0.0, 0.0, 1.6981680070818026E9, 0.0, 2023-10-24 14:20:07.081
109.0, -58971.43441098147, -63198.12693573558, -60710.91421972683, -70978.61271841679, -47752.40096478474, -31429.436079196465, -51323.248603731234, -29599.163484473647, -0.39, -0.08600000000000001, 0.92, 192.0, 0.0, 0.0, 0.0, 0.0, 0.0, 0.0, 0.0, 0.0, 0.0, 1.6981680070858328E9, 0.0, 2023-10-24 14:20:07.085
110.0, -59205.50187891744, -59317.729987827544, -59912.21933510534, -71142.40630178527, -48624.56603343082, -28098.959100122345, -53622.86312852659, -31814.48958092804, -0.388, -0.09, 0.926, 192.0, 243.0, 224.0, 253.0, 48.0, 28.0, 240.0, 0.0, 0.0, 0.0, 1.698168007091004E9, 0.0, 2023-10-24 14:20:07.091
111.0, -58487.8544196909, -61274.915787567596, -60609.303189433005, -70754.93881165252, -48585.249314933935, -30158.2700202787, -52790.372406288676, -31031.060937769525, -0.388, -0.09, 0.926, 192.0, 0.0, 0.0, 0.0, 0.0, 0.0, 0.0, 0.0, 0.0, 0.0, 1.698168007094915E9, 0.0, 2023-10-24 14:20:07.094
112.0, -58186.35173873326, -65502.83765826675, -61526.61878187881, -70570.7604373408, -47718.18044402367, -33814.00958466644, -50362.79414448669, -28690.118037476306, -0.388, -0.09, 0.926, 192.0, 0.0, 0.0, 0.0, 0.0, 0.0, 0.0, 0.0, 0.0, 0.0, 1.698168007098936E9, 0.0, 2023-10-24 14:20:07.098
113.0, -58876.93123542443, -64003.97437858277, -60930.72127470032, -70931.69640680509, -47685.74806281902, -32153.65495129287, -50935.73641010957, -29220.703747356387, -0.388, -0.09, 0.926, 192.0, 0.0, 0.0, 0.0, 0.0, 0.0, 0.0, 0.0, 0.0, 0.0, 1.6981680071019309E9, 0.0, 2023-10-24 14:20:07.101
114.0, -59275.88752220721, -59752.2031965498, -59975.76534459178, -71171.66473527727, -48538.064782388785, -28415.705670798503, -53357.01147997517, -31555.81284234677, -0.388, -0.09, 0.926, 192.0, 0.0, 0.0, 0.0, 0.0, 0.0, 0.0, 0.0, 0.0, 0.0, 1.6981680071060822E9, 0.0, 2023-10-24 14:20:07.106
115.0, -58644.5401483226, -60508.20624926165, -60408.13748933524, -70833.59460039074, -48716.901089775696, -29426.54096204531, -53193.9555041737, -31421.612968637106, -0.388, -0.09, 0.926, 192.0, 0.0, 0.0, 0.0, 0.0, 0.0, 0.0, 0.0, 0.0, 0.0, 1.6981680071109176E9, 0.0, 2023-10-24 14:20:07.110
116.0, -58142.69878181205, -65023.526850167145, -61439.78225466994, -70532.4495473444, -47849.16166653176, -33431.1912573804, -50648.51649385888, -28971.861776335452, -0.388, -0.09, 0.926, 192.0, 0.0, 0.0, 0.0, 0.0, 0.0, 0.0, 0.0, 0.0, 0.0, 1.698168007115991E9, 0.0, 2023-10-24 14:20:07.115
117.0, -58712.57885844456, -64657.94171785614, -61088.85986672162, -70812.04751873584, -47529.911700476616, -32761.555345243854, -50551.77814385631, -28862.7629116491, -0.388, -0.09, 0.926, 192.0, 0.0, 0.0, 0.0, 0.0, 0.0, 0.0, 0.0, 0.0, 0.0, 1.6981680071199028E9, 0.0, 2023-10-24 14:20:07.119
118.0, -59265.24809184648, -60333.88499425471, -60058.66796477652, -71132.54918248048, -48302.83502374113, -28884.734676448665, -52958.47987633704, -31175.721427884273, -0.388, -0.09, 0.926, 192.0, 0.0, 0.0, 0.0, 0.0, 0.0, 0.0, 0.0, 0.0, 0.0, 1.69816800712391E9, 0.0, 2023-10-24 14:20:07.123
119.0, -58781.01989996671, -59861.36911646952, -60193.49368733093, -70888.3340225618, -48719.51624387697, -28798.233425406626, -53477.26386514472, -31691.66674514613, -0.388, -0.09, 0.926, 192.0, 0.0, 0.0, 0.0, 0.0, 0.0, 0.0, 0.0, 0.0, 0.0, 1.6981680071279943E9, 0.0, 2023-10-24 14:20:07.127
120.0, -58131.20998516202, -64356.729609576425, -61295.85937212222, -70511.86359070106, -47954.14781023834, -32878.16439606719, -51006.971419688634, -29317.4197456145, -0.392, -0.092, 0.93, 192.0, 243.0, 192.0, 253.0, 32.0, 29.0, 16.0, 0.0, 0.0, 0.0, 1.6981680071308863E9, 0.0, 2023-10-24 14:20:07.130
121.0, -58567.40427820734, -65202.832544187615, -61274.93813931205, -70733.16821255305, -47500.11682511769, -33303.562796540595, -50282.774899336684, -28601.80629513339, -0.392, -0.092, 0.93, 192.0, 0.0, 0.0, 0.0, 0.0, 0.0, 0.0, 0.0, 0.0, 0.0, 1.6981680071339176E9, 0.0, 2023-10-24 14:20:07.133
122.0, -59195.13066949018, -61040.915374864984, -60228.83179531477, -71094.21594073962, -48177.10646118003, -29509.063602574304, -52514.26130703227, -30744.399815130215, -0.392, -0.092, 0.93, 192.0, 0.0, 0.0, 0.0, 0.0, 0.0, 0.0, 0.0, 0.0, 0.0, 1.6981680071379387E9, 0.0, 2023-10-24 14:20:07.137
123.0, -58887.19068612942, -59382.550046747936, -60026.66026671651, -70948.95195352459, -48769.91942762368, -28331.707815135458, -53666.22551276988, -31873.006447912034, -0.392, -0.092, 0.93, 192.0, 0.0, 0.0, 0.0, 0.0, 0.0, 0.0, 0.0, 0.0, 0.0, 1.6981680071429513E9, 0.0, 2023-10-24 14:20:07.142
124.0, -58163.7764768334, -63552.826768496845, -61107.411814619525, -70531.1978496549, -48148.160952110404, -32192.815207578566, -51459.214265252864, -29763.381750986788, -0.392, -0.092, 0.93, 192.0, 0.0, 0.0, 0.0, 0.0, 0.0, 0.0, 0.0, 0.0, 0.0, 1.6981680071459124E9, 0.0, 2023-10-24 14:20:07.145
125.0, -58410.36092166435, -65572.17276956711, -61364.56863457783, -70640.63199050809, -47502.12848211867, -33679.876766190144, -50108.11836816292, -28445.47819441297, -0.392, -0.092, 0.93, 192.0, 0.0, 0.0, 0.0, 0.0, 0.0, 0.0, 0.0, 0.0, 0.0, 1.6981680071500463E9, 0.0, 2023-10-24 14:20:07.150
126.0, -59094.9501508415, -61825.52866047963, -60322.12797667122, -71016.70009096862, -47989.73178741119, -30177.671334465904, -52020.08658886988, -30272.353323978583, -0.392, -0.092, 0.93, 192.0, 0.0, 0.0, 0.0, 0.0, 0.0, 0.0, 0.0, 0.0, 0.0, 1.6981680071539295E9, 0.0, 2023-10-24 14:20:07.153
127.0, -58990.99218737987, -59137.217299606484, -59888.79470691618, -70995.57769245836, -48700.02552271194, -28045.001989007236, -53720.428493074, -31921.55443686896, -0.392, -0.092, 0.93, 192.0, 0.0, 0.0, 0.0, 0.0, 0.0, 0.0, 0.0, 0.0, 0.0, 1.6981680071579626E9, 0.0, 2023-10-24 14:20:07.157
128.0, -58215.81133792536, -62663.42850487572, -60886.30835846763, -70562.93732678144, -48273.15190710448, -31419.534256402763, -51932.780675027454, -30216.07163144012, -0.392, -0.092, 0.93, 192.0, 0.0, 0.0, 0.0, 0.0, 0.0, 0.0, 0.0, 0.0, 0.0, 1.698168007163012E9, 0.0, 2023-10-24 14:20:07.163
129.0, -58248.66840227466, -65699.3094920289, -61426.72883590804, -70553.10255922111, -47496.65230472712, -33877.13091100823, -50055.52471345958, -28392.973946687456, -0.392, -0.092, 0.93, 192.0, 0.0, 0.0, 0.0, 0.0, 0.0, 0.0, 0.0, 0.0, 0.0, 1.698168007166942E9, 0.0, 2023-10-24 14:20:07.166
130.0, -58979.48103898538, -62620.602562499356, -60495.37634794431, -70932.47871786103, -47806.9839247446, -30887.7415523221, -51533.42205684448, -29798.1834171037, -0.392, -0.09, 0.928, 192.0, 243.0, 192.0, 253.0, 48.0, 29.0, 0.0, 0.0, 0.0, 0.0, 1.6981680071699257E9, 0.0, 2023-10-24 14:20:07.169
131.0, -59094.41370897457, -59136.54674727282, -59835.21757545681, -71033.95563768812, -48660.194714092584, -27969.609554959483, -53649.14878000603, -31844.440918498152, -0.392, -0.09, 0.928, 192.0, 0.0, 0.0, 0.0, 0.0, 0.0, 0.0, 0.0, 0.0, 0.0, 1.6981680071739535E9, 0.0, 2023-10-24 14:20:07.173
132.0, -58332.88977538226, -61782.63566286989, -60682.90748392433, -70624.56108624472, -48461.2865401848, -30621.15229620365, -52416.29361108466, -30679.602107954277, -0.392, -0.09, 0.928, 192.0, 0.0, 0.0, 0.0, 0.0, 0.0, 0.0, 0.0, 0.0, 0.0, 1.6981680071779635E9, 0.0, 2023-10-24 14:20:07.177
133.0, -58143.05640972334, -65606.43799381709, -61452.52274900946, -70491.56820673564, -47589.680265150106, -33854.06391073035, -50143.54588312458, -28483.945546620555, -0.392, -0.09, 0.928, 192.0, 0.0, 0.0, 0.0, 0.0, 0.0, 0.0, 0.0, 0.0, 0.0, 1.6981680071820655E9, 0.0, 2023-10-24 14:20:07.182
134.0, -58868.10229636459, -63425.824156501796, -60705.46039407974, -70865.04350483937, -47692.945324533626, -31608.11592437219, -51098.68062718876, -29382.508025468356, -0.392, -0.09, 0.928, 192.0, 0.0, 0.0, 0.0, 0.0, 0.0, 0.0, 0.0, 0.0, 0.0, 1.698168007186032E9, 0.0, 2023-10-24 14:20:07.186
135.0, -59182.18900945056, -59417.73169252059, -59856.47408443381, -71060.5765653344, -48566.89853273613, -28131.27972260472, -53444.13857986195, -31644.683378301073, -0.392, -0.09, 0.928, 192.0, 0.0, 0.0, 0.0, 0.0, 0.0, 0.0, 0.0, 0.0, 0.0, 1.6981680071899693E9, 0.0, 2023-10-24 14:20:07.189
136.0, -58483.38407079984, -60961.67844077092, -60452.95273696813, -70674.85251126916, -48580.53309685387, -29829.76643201905, -52821.08370317027, -31068.120130076426, -0.392, -0.09, 0.928, 192.0, 0.0, 0.0, 0.0, 0.0, 0.0, 0.0, 0.0, 0.0, 0.0, 1.6981680071950421E9, 0.0, 2023-10-24 14:20:07.195
137.0, -58040.01486778437, -65251.2017191889, -61387.121544733236, -70416.64515932144, -47662.457545096586, -33597.68940182798, -50319.78938815468, -28657.32802836037, -0.392, -0.09, 0.928, 192.0, 0.0, 0.0, 0.0, 0.0, 0.0, 0.0, 0.0, 0.0, 0.0, 1.698168007198059E9, 0.0, 2023-10-24 14:20:07.198
138.0, -58688.61778838847, -64119.868173583534, -60859.642727332444, -70759.49856752141, -47511.00212466742, -32266.95594393682, -50679.65247388512, -28982.50120669618, -0.392, -0.09, 0.928, 192.0, 0.0, 0.0, 0.0, 0.0, 0.0, 0.0, 0.0, 0.0, 0.0, 1.6981680072019694E9, 0.0, 2023-10-24 14:20:07.201
139.0, -59132.41167454859, -59814.005769968724, -59865.124209538015, -71017.6612159802, -48337.54728288022, -28460.20799400902, -53089.68461628969, -31300.690031133898, -0.392, -0.09, 0.928, 192.0, 0.0, 0.0, 0.0, 0.0, 0.0, 0.0, 0.0, 0.0, 0.0, 1.6981680072060287E9, 0.0, 2023-10-24 14:20:07.206
140.0, -58542.75030407314, -60158.15557934709, -60188.46454482849, -70701.5851976377, -48597.3192569398, -29098.976147052785, -53147.106247795375, -31376.35068611511, -0.392, -0.09, 0.928, 192.0, 0.0, 0.0, 0.0, 0.0, 0.0, 0.0, 0.0, 0.0, 0.0, 1.6981680072099843E9, 0.0, 2023-10-24 14:20:07.209
141.0, -57996.294855629785, -64711.76471850452, -61276.167485257094, -70389.95717644182, -47784.721587267115, -33153.80610869004, -50633.943156474015, -28960.6859041078, -0.392, -0.092, 0.922, 192.0, 243.0, 192.0, 253.0, 32.0, 28.0, 208.0, 0.0, 0.0, 0.0, 1.6981680072140198E9, 0.0, 2023-10-24 14:20:07.214
142.0, -58539.95633601622, -64773.25436750107, -61044.491653977835, -70670.7844937783, -47466.09747005671, -32857.84666035732, -50345.069211133625, -28662.267763884996, -0.392, -0.092, 0.922, 192.0, 0.0, 0.0, 0.0, 0.0, 0.0, 0.0, 0.0, 0.0, 0.0, 1.6981680072190013E9, 0.0, 2023-10-24 14:20:07.219
143.0, -59103.57792420124, -60461.17817892769, -59974.5583503912, -70981.2502242625, -48199.3240951686, -28975.952145570773, -52673.00339615386, -30895.72112509264, -0.392, -0.092, 0.922, 192.0, 0.0, 0.0, 0.0, 0.0, 0.0, 0.0, 0.0, 0.0, 0.0, 1.6981680072220156E9, 0.0, 2023-10-24 14:20:07.222
144.0, -58669.55175036809, -59549.67404004026, -60003.190935038445, -70749.90966915007, -48651.72340294402, -28497.73657294948, -53392.930733314846, -31606.77481970487, -0.392, -0.092, 0.922, 192.0, 0.0, 0.0, 0.0, 0.0, 0.0, 0.0, 0.0, 0.0, 0.0, 1.6981680072250624E9, 0.0, 2023-10-24 14:20:07.225
145.0, -57999.155878920064, -63987.14351500792, -61145.70035287146, -70381.79878971563, -47950.83975205896, -32537.948493712964, -51028.89848099929, -29340.95613252594, -0.392, -0.092, 0.922, 192.0, 0.0, 0.0, 0.0, 0.0, 0.0, 0.0, 0.0, 0.0, 0.0, 1.6981680072300456E9, 0.0, 2023-10-24 14:20:07.230
146.0, -58409.4892036306, -65285.668109138984, -61197.82462094124, -70585.1102572811, -47441.06351626677, -33333.916465510905, -50099.33413259198, -28430.25665643891, -0.392, -0.092, 0.922, 192.0, 0.0, 0.0, 0.0, 0.0, 0.0, 0.0, 0.0, 0.0, 0.0, 1.6981680072340317E9, 0.0, 2023-10-24 14:20:07.234
147.0, -59082.07554603524, -61253.63692684614, -60125.3432184867, -70937.97724699703, -48043.33127061502, -29612.507475913466, -52208.444739394756, -30446.384006307606, -0.392, -0.092, 0.922, 192.0, 0.0, 0.0, 0.0, 0.0, 0.0, 0.0, 0.0, 0.0, 0.0, 1.6981680072381186E9, 0.0, 2023-10-24 14:20:07.238
148.0, -58762.870283469, -59144.59337527673, -59829.4731771318, -70800.29050115234, -48643.49796098447, -28074.103960288045, -53535.57956642861, -31735.744385211994, -0.392, -0.092, 0.922, 192.0, 0.0, 0.0, 0.0, 0.0, 0.0, 0.0, 0.0, 0.0, 0.0, 1.698168007242218E9, 0.0, 2023-10-24 14:20:07.242
149.0, -57968.80220994976, -63069.31383243964, -60871.891483293955, -70367.58308024205, -48030.32255534203, -31773.541185085916, -51461.672957142946, -29747.914343823715, -0.392, -0.092, 0.922, 192.0, 0.0, 0.0, 0.0, 0.0, 0.0, 0.0, 0.0, 0.0, 0.0, 1.6981680072470632E9, 0.0, 2023-10-24 14:20:07.247
150.0, -58157.67445059711, -65461.710448468984, -61242.7069238075, -70456.56537491863, -47349.64488144456, -33610.184026978495, -49940.860264403855, -28265.814872481213, -0.392, -0.092, 0.922, 192.0, 0.0, 0.0, 0.0, 0.0, 0.0, 0.0, 0.0, 0.0, 0.0, 1.6981680072500541E9, 0.0, 2023-10-24 14:20:07.250
151.0, -58899.662959535475, -61941.69067641386, -60247.942536824055, -70842.89292608415, -47800.94895374167, -30274.23087051283, -51713.64417238763, -29956.947857969746, -0.392, -0.09, 0.928, 192.0, 243.0, 192.0, 253.0, 48.0, 29.0, 0.0, 0.0, 0.0, 0.0, 1.6981680072530904E9, 0.0, 2023-10-24 14:20:07.253
152.0, -58853.1936828129, -58928.63082034956, -59713.065292008556, -70836.9697138035, -48566.07151819128, -27824.88200961137, -53542.26273802075, -31728.27890256392, -0.392, -0.09, 0.928, 192.0, 0.0, 0.0, 0.0, 0.0, 0.0, 0.0, 0.0, 0.0, 0.0, 1.6981680072580757E9, 0.0, 2023-10-24 14:20:07.258
153.0, -58072.96133911149, -62168.851455313146, -60665.00373661563, -70405.84926674954, -48210.052932507155, -30955.73555895514, -51932.780675027454, -30194.16692187392, -0.392, -0.09, 0.928, 192.0, 0.0, 0.0, 0.0, 0.0, 0.0, 0.0, 0.0, 0.0, 0.0, 1.6981680072621891E9, 0.0, 2023-10-24 14:20:07.262
154.0, -58069.139190809634, -65541.01443779642, -61299.74857565744, -70386.47030430679, -47418.19768168899, -33715.50544685191, -49937.61926145783, -28260.62926776758, -0.392, -0.09, 0.928, 192.0, 0.0, 0.0, 0.0, 0.0, 0.0, 0.0, 0.0, 0.0, 0.0, 1.6981680072660928E9, 0.0, 2023-10-24 14:20:07.266
155.0, -58812.289990459685, -62765.71008750321, -60432.836166958354, -70771.07677114925, -47658.65774853918, -30973.23697486365, -51247.83381793903, -29502.067506559793, -0.392, -0.09, 0.928, 192.0, 0.0, 0.0, 0.0, 0.0, 0.0, 0.0, 0.0, 0.0, 0.0, 1.6981680072700903E9, 0.0, 2023-10-24 14:20:07.270
156.0, -58980.08453608568, -59050.11255146415, -59679.11299218095, -70878.81217942384, -48497.27284875785, -27827.94419860175, -53427.240661053744, -31606.30543307131, -0.392, -0.09, 0.928, 192.0, 0.0, 0.0, 0.0, 0.0, 0.0, 0.0, 0.0, 0.0, 0.0, 1.6981680072750924E9, 0.0, 2023-10-24 14:20:07.275
157.0, -58240.46531205956, -61335.35490457474, -60449.08588517737, -70471.80926463715, -48366.96217858341, -30167.34482852755, -52390.209125305315, -30632.976369020507, -0.392, -0.09, 0.928, 192.0, 0.0, 0.0, 0.0, 0.0, 0.0, 0.0, 0.0, 0.0, 0.0, 1.6981680072781017E9, 0.0, 2023-10-24 14:20:07.278
158.0, -58003.40271036658, -65391.660081346046, -61319.23929682247, -70330.7474053797, -47489.94678139053, -33628.11012603166, -50059.90565537282, -28385.62022276166, -0.392, -0.09, 0.928, 192.0, 0.0, 0.0, 0.0, 0.0, 0.0, 0.0, 0.0, 0.0, 0.0, 1.6981680072810855E9, 0.0, 2023-10-24 14:20:07.281
159.0, -58704.33106474055, -63565.075524458356, -60658.61113770141, -70708.71540411895, -47523.02736318438, -31693.365477724732, -50833.07484782635, -29110.95668208083, -0.392, -0.09, 0.928, 192.0, 0.0, 0.0, 0.0, 0.0, 0.0, 0.0, 0.0, 0.0, 0.0, 1.6981680072861993E9, 0.0, 2023-10-24 14:20:07.286
160.0, -59027.738455264385, -59387.355671805824, -59719.77081534515, -70899.75576397846, -48368.8173733732, -28068.2254514963, -53192.547344273014, -31385.470197852876, -0.392, -0.09, 0.928, 192.0, 0.0, 0.0, 0.0, 0.0, 0.0, 0.0, 0.0, 0.0, 0.0, 1.698168007291126E9, 0.0, 2023-10-24 14:20:07.291
161.0, -58347.88779591177, -60515.71643539864, -60225.30021969083, -70531.30960837718, -48467.90265654358, -29408.883083925615, -52801.16829886059, -31031.28445521408, -0.396, -0.092, 0.922, 192.0, 243.0, 160.0, 253.0, 32.0, 28.0, 208.0, 0.0, 0.0, 0.0, 1.69816800729511E9, 0.0, 2023-10-24 14:20:07.295
162.0, -57930.98305833138, -64986.78058228262, -61266.377421185665, -70295.72222181824, -47635.121361627746, -33324.036994461654, -50316.548385208655, -28637.546734517426, -0.396, -0.092, 0.922, 192.0, 0.0, 0.0, 0.0, 0.0, 0.0, 0.0, 0.0, 0.0, 0.0, 1.6981680073001187E9, 0.0, 2023-10-24 14:20:07.300
163.0, -58572.38871722087, -64285.00286161934, -60849.89736674993, -70630.05961538073, -47463.23644676643, -32346.237581519796, -50462.77349743527, -28756.905049908764, -0.396, -0.092, 0.922, 192.0, 0.0, 0.0, 0.0, 0.0, 0.0, 0.0, 0.0, 0.0, 0.0, 1.6981680073031893E9, 0.0, 2023-10-24 14:20:07.303
164.0, -59040.50130134837, -59944.316440143164, -59806.808508254115, -70903.62261576923, -48254.53290397322, -28498.094200860764, -52857.78526756588, -31060.67699917281, -0.396, -0.092, 0.922, 192.0, 0.0, 0.0, 0.0, 0.0, 0.0, 0.0, 0.0, 0.0, 0.0, 1.6981680073071244E9, 0.0, 2023-10-24 14:20:07.307
165.0, -58440.06639004545, -59805.199182653334, -60009.98586535286, -70593.22394051838, -48553.46513431849, -28747.316151537438, -53133.18111099972, -31347.606342745585, -0.396, -0.092, 0.922, 192.0, 0.0, 0.0, 0.0, 0.0, 0.0, 0.0, 0.0, 0.0, 0.0, 1.698168007310144E9, 0.0, 2023-10-24 14:20:07.310
166.0, -57822.91237388997, -64309.030986908794, -61089.55277079973, -70242.97210490372, -47749.38347928327, -32806.14707543219, -50642.16859843357, -28952.92984878181, -0.396, -0.092, 0.922, 192.0, 0.0, 0.0, 0.0, 0.0, 0.0, 0.0, 0.0, 0.0, 0.0, 1.6981680073141155E9, 0.0, 2023-10-24 14:20:07.314
167.0, -58317.332961241365, -64792.38746075481, -60975.73768803331, -70514.43404131342, -47374.94705616797, -32891.32957355137, -50150.251406461175, -28456.609363151714, -0.396, -0.092, 0.922, 192.0, 0.0, 0.0, 0.0, 0.0, 0.0, 0.0, 0.0, 0.0, 0.0, 1.6981680073182883E9, 0.0, 2023-10-24 14:20:07.318
168.0, -58927.80380580471, -60566.70076450119, -59901.06581462215, -70846.93859183056, -48067.11352671546, -29055.4573005983, -52419.10993088603, -30630.137697474685, -0.396, -0.092, 0.922, 192.0, 0.0, 0.0, 0.0, 0.0, 0.0, 0.0, 0.0, 0.0, 0.0, 1.6981680073221629E9, 0.0, 2023-10-24 14:20:07.322
169.0, -58567.113705529424, -59271.506580293964, -59812.4187961124, -70652.00902843583, -48571.055957204815, -28213.02005207778, -53355.42450611884, -31539.697234594496, -0.396, -0.092, 0.922, 192.0, 0.0, 0.0, 0.0, 0.0, 0.0, 0.0, 0.0, 0.0, 0.0, 1.6981680073261907E9, 0.0, 2023-10-24 14:20:07.326
170.0, -57880.401060629025, -63582.86751304478, -60944.668763240436, -70272.02937269562, -47913.691152774234, -32168.541213100103, -51088.59999043942, -29363.397283959068, -0.396, -0.092, 0.922, 192.0, 0.0, 0.0, 0.0, 0.0, 0.0, 0.0, 0.0, 0.0, 0.0, 1.698168007329251E9, 0.0, 2023-10-24 14:20:07.329
171.0, -58204.30018953088, -65244.987934230325, -61135.39619867757, -70443.08727301208, -47330.40002946855, -33329.44611661984, -49959.27810183503, -28251.129776374077, -0.392, -0.094, 0.926, 192.0, 243.0, 192.0, 253.0, 16.0, 28.0, 240.0, 0.0, 0.0, 0.0, 1.6981680073331695E9, 0.0, 2023-10-24 14:20:07.333
172.0, -58871.79033419971, -61328.0235323934, -60067.76512476982, -70798.59176857374, -47854.9954718346, -29709.089363704847, -51961.033280018964, -30159.49936622374, -0.392, -0.094, 0.926, 192.0, 0.0, 0.0, 0.0, 0.0, 0.0, 0.0, 0.0, 0.0, 0.0, 1.6981680073371708E9, 0.0, 2023-10-24 14:20:07.337
173.0, -58705.06867230758, -58934.59873611912, -59694.84862027748, -70723.57931418173, -48537.304823077306, -27855.772120448604, -53487.38920538297, -31637.79904100884, -0.392, -0.094, 0.926, 192.0, 0.0, 0.0, 0.0, 0.0, 0.0, 0.0, 0.0, 0.0, 0.0, 1.698168007341208E9, 0.0, 2023-10-24 14:20:07.341
174.0, -57936.07925606719, -62723.66645618278, -60742.1843102198, -70288.7931810371, -48035.39640133338, -31433.302930987233, -51537.937109224455, -29771.115454568324, -0.392, -0.094, 0.926, 192.0, 0.0, 0.0, 0.0, 0.0, 0.0, 0.0, 0.0, 0.0, 0.0, 1.6981680073464987E9, 0.0, 2023-10-24 14:20:07.346
175.0, -58061.383135483644, -65484.084544668745, -61208.30758909078, -70334.5024984482, -47296.49243312984, -33614.386154936095, -49818.037428621945, -28101.015460612234, -0.392, -0.094, 0.926, 192.0, 0.0, 0.0, 0.0, 0.0, 0.0, 0.0, 0.0, 0.0, 0.0, 1.6981680073502023E9, 0.0, 2023-10-24 14:20:07.350
176.0, -58806.52324039021, -62113.888515697545, -60231.24578371594, -70723.93694209302, -47671.71116730108, -30394.550310915747, -51475.88866661652, -29681.931994191647, -0.392, -0.094, 0.926, 192.0, 0.0, 0.0, 0.0, 0.0, 0.0, 0.0, 0.0, 0.0, 0.0, 1.6981680073541968E9, 0.0, 2023-10-24 14:20:07.354
177.0, -58862.55906373967, -58822.571792909126, -59652.13443662339, -70777.17879738555, -48497.13873829112, -27683.90955733175, -53488.685606561376, -31629.573599049283, -0.392, -0.094, 0.926, 192.0, 0.0, 0.0, 0.0, 0.0, 0.0, 0.0, 0.0, 0.0, 0.0, 1.6981680073572452E9, 0.0, 2023-10-24 14:20:07.357
178.0, -58115.720226254496, -61885.856018764505, -60581.36350886387, -70357.48009174825, -48219.23949947828, -30665.341694991792, -52033.944670432174, -30242.960780019854, -0.392, -0.094, 0.926, 192.0, 0.0, 0.0, 0.0, 0.0, 0.0, 0.0, 0.0, 0.0, 0.0, 1.6981680073612926E9, 0.0, 2023-10-24 14:20:07.361
179.0, -57996.38426260761, -65556.01245832592, -61291.03139531987, -70272.43170409581, -47353.55643672424, -33717.27123466387, -49849.24046388155, -28119.589760254596, -0.392, -0.094, 0.926, 192.0, 0.0, 0.0, 0.0, 0.0, 0.0, 0.0, 0.0, 0.0, 0.0, 1.698168007365336E9, 0.0, 2023-10-24 14:20:07.365
180.0, -58679.118296994966, -62935.15866221889, -60438.04412341644, -70641.7719294753, -47506.10709263171, -31134.951845997795, -51013.78870174751, -29223.02832877974, -0.392, -0.094, 0.926, 192.0, 0.0, 0.0, 0.0, 0.0, 0.0, 0.0, 0.0, 0.0, 0.0, 1.6981680073692842E9, 0.0, 2023-10-24 14:20:07.369
181.0, -58897.360729856584, -58932.02828550676, -59583.02284276758, -70783.28082362186, -48366.358681483114, -27735.72090097915, -53330.99404942919, -31466.31645754772, -0.392, -0.094, 0.926, 192.0, 0.0, 0.0, 0.0, 0.0, 0.0, 0.0, 0.0, 0.0, 0.0, 1.698168007375234E9, 0.0, 2023-10-24 14:20:07.375
182.0, -58151.25949993843, -60900.83699236358, -60263.00761258693, -70373.59569950053, -48298.074102172155, -29820.9374929592, -52469.80368731066, -30658.457357699557, -0.388, -0.096, 0.928, 192.0, 243.0, 224.0, 253.0, 0.0, 29.0, 0.0, 0.0, 0.0, 0.0, 1.6981680073782222E9, 0.0, 2023-10-24 14:20:07.378
183.0, -57822.55474597869, -65227.12889041053, -61204.3960338111, -70187.29390946554, -47416.70011481048, -33540.44658427794, -49999.377131387846, -28275.292012130263, -0.388, -0.096, 0.928, 192.0, 0.0, 0.0, 0.0, 0.0, 0.0, 0.0, 0.0, 0.0, 0.0, 1.6981680073822932E9, 0.0, 2023-10-24 14:20:07.382
184.0, -58524.041893964044, -63695.36384288834, -60598.7531660501, -70552.02967548724, -47382.680759749506, -31840.708177174114, -50580.92481862603, -28821.03220475104, -0.388, -0.096, 0.928, 192.0, 0.0, 0.0, 0.0, 0.0, 0.0, 0.0, 0.0, 0.0, 0.0, 1.698168007385217E9, 0.0, 2023-10-24 14:20:07.385
185.0, -58930.351904672614, -59348.46363645359, -59632.30843929153, -70800.84929476373, -48252.208322549865, -28044.331436673576, -53058.54863626345, -31209.450210267332, -0.388, -0.096, 0.928, 192.0, 0.0, 0.0, 0.0, 0.0, 0.0, 0.0, 0.0, 0.0, 0.0, 1.6981680073893147E9, 0.0, 2023-10-24 14:20:07.389
186.0, -58267.48857110603, -60120.984628317914, -60068.10040093666, -70455.1795667624, -48419.51112979784, -29079.820702054585, -52891.04466331538, -31065.996714353172, -0.388, -0.096, 0.928, 192.0, 0.0, 0.0, 0.0, 0.0, 0.0, 0.0, 0.0, 0.0, 0.0, 1.69816800739325E9, 0.0, 2023-10-24 14:20:07.393
187.0, -57761.5344836157, -64753.5848323804, -61115.97253274591, -70150.6594003033, -47540.12644769269, -33155.638951735375, -50295.49304193175, -28560.61203010226, -0.388, -0.096, 0.928, 192.0, 0.0, 0.0, 0.0, 0.0, 0.0, 0.0, 0.0, 0.0, 0.0, 1.6981680073973145E9, 0.0, 2023-10-24 14:20:07.397
188.0, -58348.96067964562, -64395.107554806185, -60781.52338046115, -70460.32046798713, -47292.46911912788, -32484.99721109834, -50236.46208482529, -28481.57626170829, -0.388, -0.096, 0.928, 192.0, 0.0, 0.0, 0.0, 0.0, 0.0, 0.0, 0.0, 0.0, 0.0, 1.6981680074022942E9, 0.0, 2023-10-24 14:20:07.402
189.0, -58870.94096791041, -59965.7517630758, -59722.31891421306, -70766.27114609137, -48067.20293369328, -28530.97361695452, -52655.32316628971, -30803.564882703413, -0.388, -0.096, 0.928, 192.0, 0.0, 0.0, 0.0, 0.0, 0.0, 0.0, 0.0, 0.0, 0.0, 1.6981680074064157E9, 0.0, 2023-10-24 14:20:07.406
190.0, -58380.78956374998, -59505.842269163404, -59887.00656735976, -70527.75568100878, -48453.44107788099, -28454.68711312856, -53179.44922202221, -31327.02038610225, -0.388, -0.096, 0.928, 192.0, 0.0, 0.0, 0.0, 0.0, 0.0, 0.0, 0.0, 0.0, 0.0, 1.698168007410334E9, 0.0, 2023-10-24 14:20:07.410
191.0, -57748.52576834271, -64018.68182643436, -60993.75319406429, -70156.04617071703, -47669.54304808892, -32529.410127331037, -50742.61733801572, -28988.178549787826, -0.388, -0.096, 0.928, 192.0, 0.0, 0.0, 0.0, 0.0, 0.0, 0.0, 0.0, 0.0, 0.0, 1.6981680074133415E9, 0.0, 2023-10-24 14:20:07.413
192.0, -58166.9280728016, -64888.14233400135, -60936.59978349206, -70357.74831268172, -47206.90664135297, -32975.059208280945, -49993.65508480729, -28245.050101882232, -0.384, -0.092, 0.928, 192.0, 244.0, 0.0, 253.0, 32.0, 29.0, 0.0, 0.0, 0.0, 0.0, 1.6981680074183538E9, 0.0, 2023-10-24 14:20:07.418
193.0, -58814.14518524947, -60733.86946128243, -59866.80059037216, -70723.51225894837, -47869.591160963915, -29187.131427184515, -52198.63232357887, -30350.45031910543, -0.384, -0.092, 0.928, 192.0, 0.0, 0.0, 0.0, 0.0, 0.0, 0.0, 0.0, 0.0, 0.0, 1.6981680074223175E9, 0.0, 2023-10-24 14:20:07.422
194.0, -58529.294553911044, -59057.19805445648, -59716.418053676854, -70593.71567889639, -48473.602351379675, -27993.838845949038, -53365.70630856828, -31494.032620672304, -0.384, -0.092, 0.928, 192.0, 0.0, 0.0, 0.0, 0.0, 0.0, 0.0, 0.0, 0.0, 0.0, 1.6981680074274223E9, 0.0, 2023-10-24 14:20:07.427
195.0, -57810.7977283952, -63214.533116165774, -60815.60979075549, -70186.48924666515, -47878.464803512674, -31837.44482248364, -51192.04386377858, -29413.554598516777, -0.384, -0.092, 0.928, 192.0, 0.0, 0.0, 0.0, 0.0, 0.0, 0.0, 0.0, 0.0, 0.0, 1.6981680074313703E9, 0.0, 2023-10-24 14:20:07.431
196.0, -58054.43174295804, -65250.97820174434, -61051.84537790363, -70300.05846024257, -47234.801618433194, -33345.4723173943, -49834.734181730055, -28088.453780228352, -0.384, -0.092, 0.928, 192.0, 0.0, 0.0, 0.0, 0.0, 0.0, 0.0, 0.0, 0.0, 0.0, 1.698168007434361E9, 0.0, 2023-10-24 14:20:07.434
197.0, -58771.654519039934, -61528.00459003504, -60039.08783663367, -70681.91566251703, -47728.663412173206, -29872.97235405116, -51727.77047488338, -29896.82166538497, -0.384, -0.092, 0.928, 192.0, 0.0, 0.0, 0.0, 0.0, 0.0, 0.0, 0.0, 0.0, 0.0, 1.6981680074383307E9, 0.0, 2023-10-24 14:20:07.438
198.0, -58696.48560243674, -58805.092728745076, -59591.60591263842, -70661.64263029608, -48463.25349369687, -27704.786086653006, -53432.269803556184, -31552.549487656295, -0.384, -0.092, 0.928, 192.0, 0.0, 0.0, 0.0, 0.0, 0.0, 0.0, 0.0, 0.0, 0.0, 1.6981680074413877E9, 0.0, 2023-10-24 14:20:07.441
199.0, -57897.63425560406, -62287.47216313746, -60555.92722367373, -70211.83612487747, -48000.058293349546, -31030.81506858052, -51654.56851179225, -29859.471900400153, -0.384, -0.092, 0.928, 192.0, 0.0, 0.0, 0.0, 0.0, 0.0, 0.0, 0.0, 0.0, 0.0, 1.6981680074453013E9, 0.0, 2023-10-24 14:20:07.445
200.0, -57938.67205842401, -65369.5318543353, -61113.46913736691, -70205.97996783018, -47222.28464153822, -33531.10355509562, -49779.77124211446, -28048.712378586817, -0.384, -0.092, 0.928, 192.0, 0.0, 0.0, 0.0, 0.0, 0.0, 0.0, 0.0, 0.0, 0.0, 1.6981680074493735E9, 0.0, 2023-10-24 14:20:07.449
201.0, -58704.66634090738, -62347.77716967788, -60222.6627138451, -70618.99550187534, -47560.801811313846, -30612.837447266276, -51266.63163502594, -29461.521442117864, -0.384, -0.092, 0.928, 192.0, 0.0, 0.0, 0.0, 0.0, 0.0, 0.0, 0.0, 0.0, 0.0, 1.6981680074533007E9, 0.0, 2023-10-24 14:20:07.453
202.0, -58795.704996073844, -58816.201545739365, -59531.05503690899, -70697.80775282475, -48379.43445198947, -27655.612248851332, -53359.87250326545, -31483.2814315893, -0.39, -0.092, 0.932, 192.0, 243.0, 208.0, 253.0, 32.0, 29.0, 32.0, 0.0, 0.0, 0.0, 1.698168007457395E9, 0.0, 2023-10-24 14:20:07.457
203.0, -58007.53778309081, -61404.55590540838, -60339.78585479091, -70260.80879697905, -48168.14341165345, -30242.357282919562, -52124.15631105379, -30314.1063826211, -0.39, -0.092, 0.932, 192.0, 0.0, 0.0, 0.0, 0.0, 0.0, 0.0, 0.0, 0.0, 0.0, 1.6981680074623232E9, 0.0, 2023-10-24 14:20:07.462
204.0, -57812.13883306251, -65257.34844891411, -61117.961838002426, -70136.51074606308, -47320.78877935276, -33508.0589065622, -49861.84684775434, -28130.050376659678, -0.39, -0.092, 0.932, 192.0, 0.0, 0.0, 0.0, 0.0, 0.0, 0.0, 0.0, 0.0, 0.0, 1.698168007465438E9, 0.0, 2023-10-24 14:20:07.465
205.0, -58561.101086270945, -63125.148490089, -60404.29298928893, -70533.47772758934, -47436.3472981867, -31316.895045863992, -50817.13805402971, -29028.255227596193, -0.39, -0.092, 0.932, 192.0, 0.0, 0.0, 0.0, 0.0, 0.0, 0.0, 0.0, 0.0, 0.0, 1.6981680074694996E9, 0.0, 2023-10-24 14:20:07.469
206.0, -58869.08577312062, -59101.16393580007, -59544.242566137626, -70726.50739270537, -48297.001218438294, -27823.429146221777, -53163.42302124775, -31286.76489433824, -0.39, -0.092, 0.932, 192.0, 0.0, 0.0, 0.0, 0.0, 0.0, 0.0, 0.0, 0.0, 0.0, 1.6981680074733925E9, 0.0, 2023-10-24 14:20:07.473
207.0, -58174.19238974958, -60629.75503560961, -60133.65806742407, -70354.7084754358, -48332.71930607788, -29487.963555808492, -52580.53422934225, -30741.024701717462, -0.39, -0.092, 0.932, 192.0, 0.0, 0.0, 0.0, 0.0, 0.0, 0.0, 0.0, 0.0, 0.0, 1.6981680074773896E9, 0.0, 2023-10-24 14:20:07.477
208.0, -57701.90002940894, -64923.30162802954, -61076.007613659815, -70095.07061184295, -47445.77973434684, -33267.24121180072, -50090.39343480986, -28342.436652474007, -0.39, -0.092, 0.932, 192.0, 0.0, 0.0, 0.0, 0.0, 0.0, 0.0, 0.0, 0.0, 0.0, 1.6981680074814065E9, 0.0, 2023-10-24 14:20:07.481
209.0, -58303.6089901458, -63809.78242275506, -60550.451046282185, -70419.52853435618, -47320.63231714157, -31969.968315359154, -50420.05931378118, -28643.80522296491, -0.39, -0.092, 0.932, 192.0, 0.0, 0.0, 0.0, 0.0, 0.0, 0.0, 0.0, 0.0, 0.0, 1.6981680074854064E9, 0.0, 2023-10-24 14:20:07.485
210.0, -58770.6710422839, -59526.472929295654, -59595.9197993183, -70699.26061621435, -48150.61964400049, -28185.90738605349, -52844.08364821478, -30975.203928375715, -0.39, -0.092, 0.932, 192.0, 0.0, 0.0, 0.0, 0.0, 0.0, 0.0, 0.0, 0.0, 0.0, 1.6981680074904544E9, 0.0, 2023-10-24 14:20:07.490
211.0, -58187.60343642276, -59831.88716553297, -59931.86651848156, -70388.30314735213, -48399.52867025479, -28790.18679740272, -52923.65585847567, -31070.645877199877, -0.39, -0.092, 0.932, 192.0, 0.0, 0.0, 0.0, 0.0, 0.0, 0.0, 0.0, 0.0, 0.0, 1.6981680074933896E9, 0.0, 2023-10-24 14:20:07.493
212.0, -57616.02462721165, -64353.26508918585, -60960.046763425686, -70046.20969846364, -47560.51123863593, -32814.52897960293, -50383.71537729685, -28629.701272213613, -0.39, -0.092, 0.932, 192.0, 0.0, 0.0, 0.0, 0.0, 0.0, 0.0, 0.0, 0.0, 0.0, 1.6981680074974897E9, 0.0, 2023-10-24 14:20:07.497
213.0, -58134.62980206368, -64431.250325590416, -60732.19308044828, -70319.28096047413, -47225.3468305286, -32551.15837468605, -50070.29921654454, -28304.550445622262, -0.39, -0.088, 0.93, 192.0, 243.0, 208.0, 253.0, 64.0, 29.0, 16.0, 0.0, 0.0, 0.0, 1.6981680075014267E9, 0.0, 2023-10-24 14:20:07.501
214.0, -58733.701256954824, -60163.78821894983, -59690.0876987085, -70674.94191824699, -47976.43249946029, -28714.168514510216, -52433.79502699316, -30572.157272357617, -0.39, -0.088, 0.93, 192.0, 0.0, 0.0, 0.0, 0.0, 0.0, 0.0, 0.0, 0.0, 0.0, 1.6981680075054524E9, 0.0, 2023-10-24 14:20:07.505
215.0, -58337.181310317676, -59258.721382465534, -59721.82717583504, -70480.70525893036, -48434.35268811616, -28237.383453534065, -53206.450129324214, -31335.335235039624, -0.39, -0.088, 0.93, 192.0, 0.0, 0.0, 0.0, 0.0, 0.0, 0.0, 0.0, 0.0, 0.0, 1.69816800750947E9, 0.0, 2023-10-24 14:20:07.509
216.0, -57642.44438915782, -63640.33384803937, -60798.264837058174, -70077.88212035682, -47712.65956314321, -32228.108612073498, -50818.501510441485, -29041.93449520284, -0.39, -0.088, 0.93, 192.0, 0.0, 0.0, 0.0, 0.0, 0.0, 0.0, 0.0, 0.0, 0.0, 1.6981680075133753E9, 0.0, 2023-10-24 14:20:07.513
217.0, -57996.943056218995, -64911.723424401695, -60870.86330304901, -70251.91280268584, -47182.23031547431, -33038.15818287828, -49848.90518771472, -28088.18555929489, -0.39, -0.088, 0.93, 192.0, 0.0, 0.0, 0.0, 0.0, 0.0, 0.0, 0.0, 0.0, 0.0, 1.6981680075175133E9, 0.0, 2023-10-24 14:20:07.517
218.0, -58712.06476832209, -60907.56486744462, -59826.07571197459, -70636.69808348395, -47790.9800757146, -29352.646094876065, -51965.88360856577, -30111.9572057673, -0.39, -0.088, 0.93, 192.0, 0.0, 0.0, 0.0, 0.0, 0.0, 0.0, 0.0, 0.0, 0.0, 1.6981680075204313E9, 0.0, 2023-10-24 14:20:07.520
219.0, -58525.382998631365, -58883.21207561637, -59579.5136188881, -70558.10934997909, -48459.16312446155, -27832.906285870828, -53348.450761848784, -31455.677027186994, -0.39, -0.088, 0.93, 192.0, 0.0, 0.0, 0.0, 0.0, 0.0, 0.0, 0.0, 0.0, 0.0, 1.6981680075254517E9, 0.0, 2023-10-24 14:20:07.525
220.0, -57752.6831928114, -62832.072416791016, -60624.4576721737, -70114.09194637442, -47904.52693754756, -31520.206513429468, -51278.232190398245, -29482.710895861495, -0.39, -0.088, 0.93, 192.0, 0.0, 0.0, 0.0, 0.0, 0.0, 0.0, 0.0, 0.0, 0.0, 1.6981680075294144E9, 0.0, 2023-10-24 14:20:07.529
221.0, -57932.90530835454, -65239.399998116496, -60967.221673395834, -70171.40181915782, -47198.07770229313, -33367.332323471586, -49701.85306094326, -27954.58918268552, -0.39, -0.088, 0.93, 192.0, 0.0, 0.0, 0.0, 0.0, 0.0, 0.0, 0.0, 0.0, 0.0, 1.6981680075334115E9, 0.0, 2023-10-24 14:20:07.533
222.0, -58699.74895712721, -61759.591014336474, -60009.56118220821, -70574.64964087601, -47645.06788791036, -30075.322696605053, -51468.69140490191, -29642.48116522803, -0.39, -0.088, 0.93, 192.0, 0.0, 0.0, 0.0, 0.0, 0.0, 0.0, 0.0, 0.0, 0.0, 1.698168007537484E9, 0.0, 2023-10-24 14:20:07.537
223.0, -58726.32518128457, -58787.032519225184, -59523.72366472765, -70613.38521401706, -48443.04751670927, -27649.510222615034, -53349.300128138086, -31458.493346988365, -0.39, -0.094, 0.924, 192.0, 243.0, 208.0, 253.0, 16.0, 28.0, 224.0, 0.0, 0.0, 0.0, 1.6981680075414588E9, 0.0, 2023-10-24 14:20:07.541
224.0, -57920.65655239303, -61979.26395884323, -60441.97803044058, -70163.22108068717, -48077.082404742534, -30746.74674829802, -51745.495408236435, -29928.24821808913, -0.39, -0.094, 0.924, 192.0, 0.0, 0.0, 0.0, 0.0, 0.0, 0.0, 0.0, 0.0, 0.0, 1.6981680075454235E9, 0.0, 2023-10-24 14:20:07.545
225.0, -57833.551804250696, -65299.30267325672, -61043.21760454388, -70093.9977281091, -47231.247691064804, -33497.66534539048, -49691.68301721609, -27941.155784267878, -0.39, -0.094, 0.924, 192.0, 0.0, 0.0, 0.0, 0.0, 0.0, 0.0, 0.0, 0.0, 0.0, 1.698168007548458E9, 0.0, 2023-10-24 14:20:07.548
226.0, -58548.092370997954, -62519.25975313899, -60187.97280645047, -70480.32527927462, -47456.66503389657, -30792.85839710932, -50984.686730466696, -29173.42980783341, -0.39, -0.094, 0.924, 192.0, 0.0, 0.0, 0.0, 0.0, 0.0, 0.0, 0.0, 0.0, 0.0, 1.6981680075534616E9, 0.0, 2023-10-24 14:20:07.553
227.0, -58707.46030896429, -58786.697243058356, -59439.12231196432, -70600.97999584436, -48299.79518649521, -27648.99613249256, -53192.94967567321, -31309.451914960377, -0.39, -0.094, 0.924, 192.0, 0.0, 0.0, 0.0, 0.0, 0.0, 0.0, 0.0, 0.0, 0.0, 1.6981680075575833E9, 0.0, 2023-10-24 14:20:07.557
228.0, -57914.68863662346, -61006.091357003614, -60183.413050581585, -70167.82554004497, -48156.29698709214, -29931.042186146045, -52166.982253430164, -30346.449356847927, -0.39, -0.094, 0.924, 192.0, 0.0, 0.0, 0.0, 0.0, 0.0, 0.0, 0.0, 0.0, 0.0, 1.6981680075614812E9, 0.0, 2023-10-24 14:20:07.561
229.0, -57622.149005192405, -65038.3013532521, -60962.34899310458, -69979.3109273089, -47258.36035708909, -33355.8211750771, -49777.24549499101, -28036.105994714024, -0.39, -0.094, 0.924, 192.0, 0.0, 0.0, 0.0, 0.0, 0.0, 0.0, 0.0, 0.0, 0.0, 1.6981680075654604E9, 0.0, 2023-10-24 14:20:07.565
230.0, -58349.43006627919, -63262.47760802241, -60306.50410729696, -70370.86878667698, -47296.1124534741, -31456.615800454118, -50530.16400696803, -28730.820564129423, -0.39, -0.094, 0.924, 192.0, 0.0, 0.0, 0.0, 0.0, 0.0, 0.0, 0.0, 0.0, 0.0, 1.6981680075694745E9, 0.0, 2023-10-24 14:20:07.569
231.0, -58751.13561762997, -59156.6633172826, -59458.47892266261, -70640.20730736344, -48197.670066078914, -27889.210330153746, -52964.939530484626, -31073.305734790058, -0.39, -0.094, 0.924, 192.0, 0.0, 0.0, 0.0, 0.0, 0.0, 0.0, 0.0, 0.0, 0.0, 1.698168007573538E9, 0.0, 2023-10-24 14:20:07.573
232.0, -58090.10512710871, -60273.84820864776, -59972.52434164576, -70285.70864030227, -48312.110997690084, -29214.869942053552, -52607.691598855454, -30754.636914090745, -0.39, -0.094, 0.924, 192.0, 0.0, 0.0, 0.0, 0.0, 0.0, 0.0, 0.0, 0.0, 0.0, 1.6981680075764823E9, 0.0, 2023-10-24 14:20:07.576
233.0, -57609.09558643051, -64692.341052572854, -60934.34225730208, -69986.35172681234, -47416.789521788305, -33080.60414559891, -50062.14082981835, -28297.733163563393, -0.392, -0.092, 0.926, 192.0, 243.0, 192.0, 253.0, 32.0, 28.0, 240.0, 0.0, 0.0, 0.0, 1.6981680075805864E9, 0.0, 2023-10-24 14:20:07.580
234.0, -58214.67139895814, -63992.910265077386, -60514.867069109336, -70301.37721316543, -47208.42655997593, -32120.730831710203, -50170.300921237584, -28379.942879670012, -0.392, -0.092, 0.926, 192.0, 0.0, 0.0, 0.0, 0.0, 0.0, 0.0, 0.0, 0.0, 0.0, 1.698168007585524E9, 0.0, 2023-10-24 14:20:07.585
235.0, -58747.98402166177, -59705.10807098247, -59546.07540918296, -70623.84583042214, -48023.99701166117, -28314.11699224913, -52606.81988082169, -30720.84107647432, -0.392, -0.092, 0.926, 192.0, 0.0, 0.0, 0.0, 0.0, 0.0, 0.0, 0.0, 0.0, 0.0, 1.6981680075896192E9, 0.0, 2023-10-24 14:20:07.589
236.0, -58236.62081201325, -59588.29785445904, -59783.98737716525, -70365.32555405206, -48373.8688676201, -28556.342846911295, -52954.38950710172, -31075.42915051331, -0.392, -0.092, 0.926, 192.0, 0.0, 0.0, 0.0, 0.0, 0.0, 0.0, 0.0, 0.0, 0.0, 1.6981680075935225E9, 0.0, 2023-10-24 14:20:07.593
237.0, -57597.539734547114, -64080.663213808926, -60828.46204381729, -69993.83956120486, -47564.26633170442, -32593.246709495394, -50448.13310481705, -28664.234717397063, -0.392, -0.092, 0.926, 192.0, 0.0, 0.0, 0.0, 0.0, 0.0, 0.0, 0.0, 0.0, 0.0, 1.69816800759751E9, 0.0, 2023-10-24 14:20:07.597
238.0, -58042.60767014119, -64569.7417342355, -60680.78406820108, -70224.73308142819, -47145.193474911866, -32683.480701861467, -49893.09458650286, -28106.424582770418, -0.392, -0.092, 0.926, 192.0, 0.0, 0.0, 0.0, 0.0, 0.0, 0.0, 0.0, 0.0, 0.0, 1.6981680076015117E9, 0.0, 2023-10-24 14:20:07.601
239.0, -58683.96862554177, -60382.164762278175, -59670.57462579902, -70597.58253068716, -47863.936169616725, -28890.926109662785, -52192.575000831486, -30311.8041529422, -0.392, -0.092, 0.926, 192.0, 0.0, 0.0, 0.0, 0.0, 0.0, 0.0, 0.0, 0.0, 0.0, 1.6981680076065493E9, 0.0, 2023-10-24 14:20:07.606
240.0, -58352.71577271412, -59078.61102564467, -59646.77001795412, -70439.91332529942, -48418.70646699744, -28056.51313740172, -53189.619265749374, -31293.179844996914, -0.392, -0.092, 0.926, 192.0, 0.0, 0.0, 0.0, 0.0, 0.0, 0.0, 0.0, 0.0, 0.0, 1.698168007609549E9, 0.0, 2023-10-24 14:20:07.609
241.0, -57598.63497002542, -63304.05185270928, -60671.44103901876, -69993.05725014892, -47713.687743388145, -31945.22493424713, -50870.20109536661, -29071.95288800632, -0.392, -0.092, 0.926, 192.0, 0.0, 0.0, 0.0, 0.0, 0.0, 0.0, 0.0, 0.0, 0.0, 1.6981680076135435E9, 0.0, 2023-10-24 14:20:07.613
242.0, -57867.191179655936, -64948.26852658612, -60771.97918557873, -70090.86848388535, -47075.88071535596, -33081.967602010685, -49648.65590913963, -27879.08498991549, -0.392, -0.092, 0.926, 192.0, 0.0, 0.0, 0.0, 0.0, 0.0, 0.0, 0.0, 0.0, 0.0, 1.6981680076175914E9, 0.0, 2023-10-24 14:20:07.617
243.0, -58600.14958383436, -61107.3224076417, -59770.21870258078, -70476.74900016177, -47635.30017558339, -29510.248245030434, -51655.529636803825, -29801.17855086071, -0.394, -0.096, 0.932, 192.0, 243.0, 176.0, 253.0, 0.0, 29.0, 32.0, 0.0, 0.0, 0.0, 1.6981680076215496E9, 0.0, 2023-10-24 14:20:07.621
244.0, -58503.38888208734, -58744.117169870995, -59469.02894604552, -70456.18539526289, -48376.52872521028, -27679.841539840883, -53244.0681152425, -31348.2992468237, -0.394, -0.096, 0.932, 192.0, 0.0, 0.0, 0.0, 0.0, 0.0, 0.0, 0.0, 0.0, 0.0, 1.698168007625546E9, 0.0, 2023-10-24 14:20:07.625
245.0, -57714.46170979282, -62433.652571875165, -60465.31325165192, -70006.75886950003, -47877.01194012308, -31177.80014011862, -51320.07465601858, -29511.1646665531, -0.394, -0.096, 0.932, 192.0, 0.0, 0.0, 0.0, 0.0, 0.0, 0.0, 0.0, 0.0, 0.0, 1.6981680076296666E9, 0.0, 2023-10-24 14:20:07.629
246.0, -57771.59276862058, -65150.93179356239, -60887.62711139049, -69997.59465427336, -47093.33742777556, -33330.67546256488, -49547.961300368464, -27786.369953914877, -0.394, -0.096, 0.932, 192.0, 0.0, 0.0, 0.0, 0.0, 0.0, 0.0, 0.0, 0.0, 0.0, 1.6981680076326427E9, 0.0, 2023-10-24 14:20:07.632
247.0, -58530.747417300634, -61910.7111585988, -59954.48648387033, -70406.117487683, -47466.52215320136, -30225.884047256, -51175.101241481454, -29334.00474000034, -0.394, -0.096, 0.932, 192.0, 0.0, 0.0, 0.0, 0.0, 0.0, 0.0, 0.0, 0.0, 0.0, 1.69816800763669E9, 0.0, 2023-10-24 14:20:07.636
248.0, -58650.91039549236, -58696.88793383693, -59412.47903257359, -70518.09972740409, -48317.90009950401, -27562.986619828538, -53224.89031849984, -31314.86103711856, -0.394, -0.096, 0.932, 192.0, 0.0, 0.0, 0.0, 0.0, 0.0, 0.0, 0.0, 0.0, 0.0, 1.6981680076415937E9, 0.0, 2023-10-24 14:20:07.641
249.0, -57867.459400589396, -61593.405794311264, -60285.135839597686, -70084.29707101549, -48039.17384614633, -30402.86515985312, -51818.47385388301, -29978.69610532476, -0.394, -0.096, 0.932, 192.0, 0.0, 0.0, 0.0, 0.0, 0.0, 0.0, 0.0, 0.0, 0.0, 1.698168007645602E9, 0.0, 2023-10-24 14:20:07.645
250.0, -57681.98462509926, -65164.18637802439, -60929.1790043329, -69945.85036585933, -47155.16235293893, -33376.94357358737, -49610.6579435656, -27841.422300508297, -0.394, -0.096, 0.932, 192.0, 0.0, 0.0, 0.0, 0.0, 0.0, 0.0, 0.0, 0.0, 0.0, 1.6981680076496563E9, 0.0, 2023-10-24 14:20:07.649
251.0, -58412.86431704335, -62727.73447367364, -60150.824207165744, -70336.58121068255, -47321.705200875425, -30929.22639003115, -50728.535739008876, -28901.00674641213, -0.394, -0.096, 0.932, 192.0, 0.0, 0.0, 0.0, 0.0, 0.0, 0.0, 0.0, 0.0, 0.0, 1.6981680076525881E9, 0.0, 2023-10-24 14:20:07.652
252.0, -58708.28732350914, -58888.44238381892, -59397.771584721995, -70542.01609397127, -48210.92465054091, -27645.21868767961, -53055.59820599535, -31150.82158456106, -0.394, -0.096, 0.932, 192.0, 0.0, 0.0, 0.0, 0.0, 0.0, 0.0, 0.0, 0.0, 0.0, 1.698168007656618E9, 0.0, 2023-10-24 14:20:07.656
253.0, -57993.41148059505, -60768.000575065686, -60066.379316613595, -70143.9538769667, -48156.29698709214, -29616.150810259678, -52261.86540864294, -30401.88168309709, -0.394, -0.096, 0.932, 192.0, 0.0, 0.0, 0.0, 0.0, 0.0, 0.0, 0.0, 0.0, 0.0, 1.6981680076607172E9, 0.0, 2023-10-24 14:20:07.660
254.0, -57587.81672570905, -64911.49990695714, -60913.35396925855, -69886.10415293029, -47223.78220841673, -33196.78851327759, -49787.817870118364, -28010.40148859042, -0.392, -0.088, 0.93, 192.0, 243.0, 192.0, 253.0, 64.0, 29.0, 16.0, 0.0, 0.0, 0.0, 1.6981680076646392E9, 0.0, 2023-10-24 14:20:07.664
255.0, -58209.97753262252, -63448.75704631294, -60330.286363397405, -70227.14706982936, -47160.10208846356, -31599.577557990262, -50310.22284152781, -28498.49653226096, -0.392, -0.088, 0.93, 192.0, 0.0, 0.0, 0.0, 0.0, 0.0, 0.0, 0.0, 0.0, 0.0, 1.698168007669652E9, 0.0, 2023-10-24 14:20:07.669
0.0, -58632.13493014991, -59240.258841545445, -59434.56255609543, -70511.75183197878, -48025.02519190612, -27938.048891788592, -52760.26460650738, -30856.67262752922, -0.392, -0.088, 0.93, 192.0, 0.0, 0.0, 0.0, 0.0, 0.0, 0.0, 0.0, 0.0, 0.0, 1.6981680076736217E9, 0.0, 2023-10-24 14:20:07.673
1.0, -58037.556175894286, -59912.0405211497, -59822.52178460619, -70198.71565088221, -48181.12977518199, -28890.970813151696, -52650.29402378727, -30771.66894336569, -0.392, -0.088, 0.93, 192.0, 0.0, 0.0, 0.0, 0.0, 0.0, 0.0, 0.0, 0.0, 0.0, 1.698168007677641E9, 0.0, 2023-10-24 14:20:07.677
2.0, -57457.2601863456, -64338.267068656336, -60777.03067982563, -69845.55808848835, -47283.01433122329, -32811.57854933483, -50076.8706294144, -28295.58739609568, -0.392, -0.088, 0.93, 192.0, 0.0, 0.0, 0.0, 0.0, 0.0, 0.0, 0.0, 0.0, 0.0, 1.698168007680643E9, 0.0, 2023-10-24 14:20:07.680
3.0, -57987.01888168084, -64032.74107369674, -60431.316248335395, -70121.71389123368, -47014.21225240377, -32190.155349988385, -49954.40542154377, -28146.456557089874, -0.392, -0.088, 0.93, 192.0, 0.0, 0.0, 0.0, 0.0, 0.0, 0.0, 0.0, 0.0, 0.0, 1.6981680076846335E9, 0.0, 2023-10-24 14:20:07.684
4.0, -58599.613141967435, -59790.06705165709, -59472.20289375817, -70486.65082295547, -47844.93718682971, -28393.66685076557, -52376.775726887674, -30469.69687577449, -0.392, -0.088, 0.93, 192.0, 0.0, 0.0, 0.0, 0.0, 0.0, 0.0, 0.0, 0.0, 0.0, 1.69816800769064E9, 0.0, 2023-10-24 14:20:07.690
5.0, -58156.71332558553, -59286.146972912196, -59616.28223851708, -70265.65912552585, -48277.89047692901, -28266.418369581508, -52947.81809423186, -31035.307769216037, -0.392, -0.088, 0.93, 192.0, 0.0, 0.0, 0.0, 0.0, 0.0, 0.0, 0.0, 0.0, 0.0, 1.6981680076936586E9, 0.0, 2023-10-24 14:20:07.693
6.0, -57481.73534652416, -63710.674787840224, -60663.059134848016, -69855.25874558196, -47491.82432792477, -32256.09299613154, -50480.47607904388, -28666.782816264968, -0.392, -0.088, 0.93, 192.0, 0.0, 0.0, 0.0, 0.0, 0.0, 0.0, 0.0, 0.0, 0.0, 1.6981680076976604E9, 0.0, 2023-10-24 14:20:07.697
7.0, -57895.93552302546, -64597.25673165998, -60612.43243365675, -70048.534279887, -47003.483415065224, -32700.445675903047, -49703.57414526631, -27892.786609266594, -0.392, -0.088, 0.93, 192.0, 0.0, 0.0, 0.0, 0.0, 0.0, 0.0, 0.0, 0.0, 0.0, 1.6981680077028084E9, 0.0, 2023-10-24 14:20:07.702
8.0, -58585.82211563851, -60516.811670876945, -59601.351273220935, -70429.4750606388, -47676.31562665888, -28980.534253184112, -51912.26177361748, -30015.46472495374, -0.388, -0.09, 0.926, 192.0, 243.0, 224.0, 253.0, 48.0, 28.0, 240.0, 0.0, 0.0, 0.0, 1.6981680077066736E9, 0.0, 2023-10-24 14:20:07.706
9.0, -58361.365897818316, -58845.12470306453, -59475.66741414874, -70324.33245472104, -48296.97886669384, -27796.204721475213, -53121.26763120504, -31197.380268261466, -0.388, -0.09, 0.926, 192.0, 0.0, 0.0, 0.0, 0.0, 0.0, 0.0, 0.0, 0.0, 0.0, 1.6981680077106764E9, 0.0, 2023-10-24 14:20:07.710
10.0, -57589.58251352102, -62934.80103430761, -60513.97299933112, -69880.35975460526, -47660.37883286224, -31579.237470535933, -50931.958965296624, -29098.99849879724, -0.388, -0.09, 0.926, 192.0, 0.0, 0.0, 0.0, 0.0, 0.0, 0.0, 0.0, 0.0, 0.0, 1.6981680077136989E9, 0.0, 2023-10-24 14:20:07.713
11.0, -57827.38272278103, -65001.17510571184, -60761.630327895924, -69977.54513949694, -46991.07819689253, -33077.407846141796, -49539.579396197725, -27731.33995906591, -0.388, -0.09, 0.926, 192.0, 0.0, 0.0, 0.0, 0.0, 0.0, 0.0, 0.0, 0.0, 0.0, 1.6981680077167108E9, 0.0, 2023-10-24 14:20:07.716
12.0, -58578.378984734896, -61343.557994789844, -59787.83187721156, -70394.5616357996, -47505.95063042053, -29654.43934851162, -51444.93150054592, -29550.257867605433, -0.388, -0.09, 0.926, 192.0, 0.0, 0.0, 0.0, 0.0, 0.0, 0.0, 0.0, 0.0, 0.0, 1.6981680077207167E9, 0.0, 2023-10-24 14:20:07.720
13.0, -58514.38594035935, -58644.04840994459, -59361.53940695994, -70403.368223115, -48265.93229364542, -27517.277302417435, -53186.51237327008, -31244.631856039985, -0.388, -0.09, 0.926, 192.0, 0.0, 0.0, 0.0, 0.0, 0.0, 0.0, 0.0, 0.0, 0.0, 1.6981680077247007E9, 0.0, 2023-10-24 14:20:07.724
14.0, -57700.871849163996, -62083.132515327045, -60317.858793480256, -69941.31296173489, -47822.74190458559, -30801.4191152357, -51411.18036641841, -29553.70003625155, -0.388, -0.09, 0.926, 192.0, 0.0, 0.0, 0.0, 0.0, 0.0, 0.0, 0.0, 0.0, 0.0, 1.69816800772975E9, 0.0, 2023-10-24 14:20:07.729
15.0, -57677.76014539721, -65127.663627584414, -60829.53492755115, -69884.00308895149, -47007.21615638926, -33248.93513309183, -49478.134450690086, -27679.416856696233, -0.388, -0.09, 0.926, 192.0, 0.0, 0.0, 0.0, 0.0, 0.0, 0.0, 0.0, 0.0, 0.0, 1.698168007733677E9, 0.0, 2023-10-24 14:20:07.733
16.0, -58411.56791586494, -62121.39870183453, -59947.736257044824, -70275.65035529737, -47316.09491301715, -30346.7622812703, -50937.81512234391, -29060.777015778665, -0.388, -0.09, 0.926, 192.0, 0.0, 0.0, 0.0, 0.0, 0.0, 0.0, 0.0, 0.0, 0.0, 1.6981680077367885E9, 0.0, 2023-10-24 14:20:07.736
17.0, -58534.457806880215, -58606.40807228185, -59276.31220535186, -70395.70157476683, -48174.06662393411, -27436.118118300215, -53079.11224116233, -31131.710843051773, -0.388, -0.09, 0.926, 192.0, 0.0, 0.0, 0.0, 0.0, 0.0, 0.0, 0.0, 0.0, 0.0, 1.698168007740708E9, 0.0, 2023-10-24 14:20:07.740
18.0, -57753.085524211594, -61148.80724535075, -60062.55716831174, -69958.99319159905, -47960.54040915256, -29985.80396006155, -51861.903293359675, -29984.1275792274, -0.384, -0.092, 0.922, 192.0, 244.0, 0.0, 253.0, 32.0, 28.0, 208.0, 0.0, 0.0, 0.0, 1.698168007744742E9, 0.0, 2023-10-24 14:20:07.744
19.0, -57528.6293063914, -64964.63000352741, -60792.252217799694, -69794.59611113026, -47032.563034601575, -33200.81182727955, -49558.176047584544, -27756.798596000506, -0.384, -0.092, 0.922, 192.0, 0.0, 0.0, 0.0, 0.0, 0.0, 0.0, 0.0, 0.0, 0.0, 1.6981680077487948E9, 0.0, 2023-10-24 14:20:07.748
20.0, -58249.785989497424, -62857.10637058096, -60086.8311627902, -70188.14327575485, -47128.36261133702, -31037.230019239192, -50493.12716640558, -28631.645873981226, -0.384, -0.092, 0.922, 192.0, 0.0, 0.0, 0.0, 0.0, 0.0, 0.0, 0.0, 0.0, 0.0, 1.6981680077527287E9, 0.0, 2023-10-24 14:20:07.752
21.0, -58608.33032230501, -58865.59890098559, -59276.51337105196, -70428.91626702741, -48043.21951189274, -27605.142009871248, -52877.32069221982, -30930.45573597619, -0.384, -0.092, 0.922, 192.0, 0.0, 0.0, 0.0, 0.0, 0.0, 0.0, 0.0, 0.0, 0.0, 1.6981680077577355E9, 0.0, 2023-10-24 14:20:07.757
22.0, -57897.880124793075, -60336.00840997796, -59845.9240610509, -70046.14264323028, -48082.33506468953, -29228.862134082574, -52306.524194064645, -30394.21503474892, -0.384, -0.092, 0.922, 192.0, 0.0, 0.0, 0.0, 0.0, 0.0, 0.0, 0.0, 0.0, 0.0, 1.6981680077607691E9, 0.0, 2023-10-24 14:20:07.760
23.0, -57450.55466300901, -64656.53355795545, -60768.98405182172, -69771.0150207299, -47187.6394376325, -32970.41004543424, -49795.41746323317, -27974.325773039553, -0.384, -0.092, 0.922, 192.0, 0.0, 0.0, 0.0, 0.0, 0.0, 0.0, 0.0, 0.0, 0.0, 1.698168007764743E9, 0.0, 2023-10-24 14:20:07.764
24.0, -58093.72610971047, -63599.877190575266, -60275.56929297082, -70106.04531837051, -47063.36373846099, -31696.919405093126, -50105.05617917254, -28253.02967465278, -0.384, -0.092, 0.922, 192.0, 0.0, 0.0, 0.0, 0.0, 0.0, 0.0, 0.0, 0.0, 0.0, 1.6981680077687857E9, 0.0, 2023-10-24 14:20:07.768
25.0, -58589.21958079572, -59349.44711320962, -59344.41797070718, -70415.72873779878, -47927.4598273587, -27962.926383367347, -52551.38755457253, -30615.944339745565, -0.384, -0.092, 0.922, 192.0, 0.0, 0.0, 0.0, 0.0, 0.0, 0.0, 0.0, 0.0, 0.0, 1.6981680077728252E9, 0.0, 2023-10-24 14:20:07.772
26.0, -58021.08294023072, -59610.60489542543, -59654.838997702485, -70114.11429811888, -48199.74877831325, -28535.801593756867, -52667.102535617654, -30756.536812369446, -0.384, -0.092, 0.922, 192.0, 0.0, 0.0, 0.0, 0.0, 0.0, 0.0, 0.0, 0.0, 0.0, 1.6981680077767527E9, 0.0, 2023-10-24 14:20:07.776
27.0, -57418.993999838116, -64092.755507559246, -60678.59359724446, -69749.80321524182, -47344.5263319643, -32521.139981882574, -50125.910356749344, -28310.630120114103, -0.384, -0.092, 0.922, 192.0, 0.0, 0.0, 0.0, 0.0, 0.0, 0.0, 0.0, 0.0, 0.0, 1.698168007780753E9, 0.0, 2023-10-24 14:20:07.780
28.0, -57923.741093127865, -64203.28488389074, -60436.72537049358, -70009.70929976813, -46986.093757878996, -32272.789749239655, -49780.66531189267, -27952.644580917906, -0.384, -0.092, 0.922, 192.0, 0.0, 0.0, 0.0, 0.0, 0.0, 0.0, 0.0, 0.0, 0.0, 1.6981680077857592E9, 0.0, 2023-10-24 14:20:07.785
29.0, -58559.625871136894, -59978.04522252622, -59436.59656484087, -70384.12337113898, -47758.03360438748, -28474.915441860612, -52147.17860784276, -30233.6848060709, -0.39, -0.094, 0.92, 192.0, 243.0, 208.0, 253.0, 16.0, 28.0, 192.0, 0.0, 0.0, 0.0, 1.6981680077887487E9, 0.0, 2023-10-24 14:20:07.788
30.0, -58194.95716034856, -59050.00079274188, -59483.44582121919, -70203.83420036247, -48255.896360384984, -27974.795159673115, -52948.086315165325, -31024.4224696663, -0.39, -0.094, 0.92, 192.0, 0.0, 0.0, 0.0, 0.0, 0.0, 0.0, 0.0, 0.0, 0.0, 1.698168007792747E9, 0.0, 2023-10-24 14:20:07.792
31.0, -57486.00452971513, -63393.101202619226, -60533.70958968515, -69772.22201493049, -47505.235374597956, -31921.107401979854, -50547.82188508772, -28711.508656920036, -0.39, -0.094, 0.92, 192.0, 0.0, 0.0, 0.0, 0.0, 0.0, 0.0, 0.0, 0.0, 0.0, 1.6981680077967849E9, 0.0, 2023-10-24 14:20:07.796
32.0, -57835.47405427385, -64711.921180715704, -60603.357625407894, -69941.31296173489, -46961.30567327806, -32751.988798616985, -49562.26641681986, -27740.43711905922, -0.39, -0.094, 0.92, 192.0, 0.0, 0.0, 0.0, 0.0, 0.0, 0.0, 0.0, 0.0, 0.0, 1.6981680078008018E9, 0.0, 2023-10-24 14:20:07.800
33.0, -58518.85628925041, -60742.11725498644, -59600.52425867609, -70343.33143750804, -47594.03885531889, -29117.14811529495, -51701.61893387067, -29795.635318235796, -0.39, -0.094, 0.92, 192.0, 0.0, 0.0, 0.0, 0.0, 0.0, 0.0, 0.0, 0.0, 0.0, 1.6981680078048596E9, 0.0, 2023-10-24 14:20:07.804
34.0, -58341.0705138529, -58669.21647420126, -59348.08365679785, -70274.01867795213, -48272.347244304096, -27572.240242033036, -53107.99069499859, -31165.193756245826, -0.39, -0.094, 0.92, 192.0, 0.0, 0.0, 0.0, 0.0, 0.0, 0.0, 0.0, 0.0, 0.0, 1.698168007808776E9, 0.0, 2023-10-24 14:20:07.808
35.0, -57541.92859434231, -62541.65620108321, -60342.98215424802, -69807.09073628078, -47687.29033318643, -31184.773884388673, -51028.585556576916, -29167.81951997513, -0.39, -0.094, 0.92, 192.0, 0.0, 0.0, 0.0, 0.0, 0.0, 0.0, 0.0, 0.0, 0.0, 1.698168007813828E9, 0.0, 2023-10-24 14:20:07.813
36.0, -57656.36952595348, -64951.88950918788, -60682.43809729077, -69841.35596053075, -46950.37567023941, -33037.64409275581, -49429.85468266663, -27609.52295178449, -0.39, -0.094, 0.92, 192.0, 0.0, 0.0, 0.0, 0.0, 0.0, 0.0, 0.0, 0.0, 0.0, 1.698168007816824E9, 0.0, 2023-10-24 14:20:07.816
37.0, -58399.78854653699, -61511.196078204644, -59741.452007466796, -70260.04883766756, -47406.35125712767, -29792.03668737849, -51206.59484941899, -29313.84346650165, -0.39, -0.094, 0.92, 192.0, 0.0, 0.0, 0.0, 0.0, 0.0, 0.0, 0.0, 0.0, 0.0, 1.6981680078208177E9, 0.0, 2023-10-24 14:20:07.820
38.0, -58448.51534944956, -58533.764902802104, -59258.07318187633, -70326.098242533, -48219.3289064561, -27375.36607687069, -53119.45713990416, -31170.289953981635, -0.39, -0.094, 0.92, 192.0, 0.0, 0.0, 0.0, 0.0, 0.0, 0.0, 0.0, 0.0, 0.0, 1.698168007824808E9, 0.0, 2023-10-24 14:20:07.824
39.0, -57636.23060419925, -61673.69326039473, -60158.42380028055, -69858.67856248362, -47816.528119627015, -30420.74655541737, -51512.09849263412, -29641.385929749722, -0.388, -0.094, 0.926, 192.0, 243.0, 224.0, 253.0, 16.0, 28.0, 240.0, 0.0, 0.0, 0.0, 1.698168007829856E9, 0.0, 2023-10-24 14:20:07.829
40.0, -57512.58075387249, -64997.86704753245, -60737.26692643964, -69758.27452639038, -46942.105524790946, -33165.38431231789, -49424.445560508444, -27627.404347348733, -0.388, -0.094, 0.926, 192.0, 0.0, 0.0, 0.0, 0.0, 0.0, 0.0, 0.0, 0.0, 0.0, 1.698168007833882E9, 0.0, 2023-10-24 14:20:07.833
41.0, -58258.77139076846, -62287.695680582015, -59904.59739024608, -70167.33380166696, -47195.2390307473, -30501.972794767953, -50722.724285450495, -28860.37127499238, -0.388, -0.094, 0.926, 192.0, 0.0, 0.0, 0.0, 0.0, 0.0, 0.0, 0.0, 0.0, 0.0, 1.6981680078388317E9, 0.0, 2023-10-24 14:20:07.838
42.0, -58487.87677143536, -58594.6287029539, -59223.87501285971, -70342.97380959676, -48097.66836138587, -27389.00064098843, -52979.758737058495, -31033.631388381888, -0.388, -0.094, 0.926, 192.0, 0.0, 0.0, 0.0, 0.0, 0.0, 0.0, 0.0, 0.0, 0.0, 1.6981680078428597E9, 0.0, 2023-10-24 14:20:07.842
43.0, -57751.58795733309, -60785.63610144092, -59937.58856506212, -69926.56081039438, -47978.33239773898, -29639.06134832637, -51986.402509975735, -30089.225481656253, -0.388, -0.094, 0.926, 192.0, 0.0, 0.0, 0.0, 0.0, 0.0, 0.0, 0.0, 0.0, 0.0, 1.6981680078458507E9, 0.0, 2023-10-24 14:20:07.845
44.0, -57443.29034606104, -64823.92577218125, -60735.568193861036, -69725.708034719, -47081.848631125526, -33071.99872398361, -49597.85039399271, -27777.58571834394, -0.388, -0.094, 0.926, 192.0, 0.0, 0.0, 0.0, 0.0, 0.0, 0.0, 0.0, 0.0, 0.0, 1.6981680078498943E9, 0.0, 2023-10-24 14:20:07.849
45.0, -58159.060258753336, -63086.05528903667, -60104.80196533227, -70109.33102480543, -47117.007925153724, -31212.55710274662, -50329.66885920392, -28467.092331301254, -0.388, -0.094, 0.926, 192.0, 0.0, 0.0, 0.0, 0.0, 0.0, 0.0, 0.0, 0.0, 0.0, 1.698168007852904E9, 0.0, 2023-10-24 14:20:07.852
46.0, -58542.97382151769, -58953.06127703921, -59252.59700448478, -70371.53933901065, -48010.34009579899, -27650.784272048986, -52758.81174311778, -30818.607606721835, -0.388, -0.094, 0.926, 192.0, 0.0, 0.0, 0.0, 0.0, 0.0, 0.0, 0.0, 0.0, 0.0, 1.6981680078578782E9, 0.0, 2023-10-24 14:20:07.857
47.0, -57897.96953177089, -60006.07431007318, -59744.737713901726, -70030.40701513375, -48138.52735025017, -28931.516877593625, -52439.204149151345, -30527.05145204681, -0.388, -0.094, 0.926, 192.0, 0.0, 0.0, 0.0, 0.0, 0.0, 0.0, 0.0, 0.0, 0.0, 1.698168007862891E9, 0.0, 2023-10-24 14:20:07.862
48.0, -57394.56354314847, -64410.329092780245, -60683.51098102462, -69710.26297930039, -47230.82300792015, -32776.039275650895, -49886.45611839964, -28059.351808947544, -0.388, -0.094, 0.926, 192.0, 0.0, 0.0, 0.0, 0.0, 0.0, 0.0, 0.0, 0.0, 0.0, 1.698168007865862E9, 0.0, 2023-10-24 14:20:07.865
49.0, -57989.85755322666, -63742.23545101112, -60262.24765327545, -70009.97752070159, -47010.45715933528, -31846.854906899323, -49965.827162960435, -28118.963911409846, -0.39, -0.094, 0.918, 192.0, 243.0, 208.0, 253.0, 16.0, 28.0, 176.0, 0.0, 0.0, 0.0, 1.6981680078688984E9, 0.0, 2023-10-24 14:20:07.868
50.0, -58539.82222554949, -59477.29909149398, -59303.40251963169, -70349.81344340008, -47850.636881665814, -28063.3751229495, -52408.40344529194, -30473.11669267615, -0.39, -0.094, 0.918, 192.0, 0.0, 0.0, 0.0, 0.0, 0.0, 0.0, 0.0, 0.0, 0.0, 1.698168007872908E9, 0.0, 2023-10-24 14:20:07.872
51.0, -58035.11983574866, -59340.573470660864, -59543.97434520416, -70101.10558284588, -48217.47371166632, -28282.086942444676, -52778.59303696073, -30853.29751411647, -0.39, -0.094, 0.918, 192.0, 0.0, 0.0, 0.0, 0.0, 0.0, 0.0, 0.0, 0.0, 0.0, 1.6981680078758812E9, 0.0, 2023-10-24 14:20:07.875
52.0, -57369.37312714734, -63798.04775691602, -60577.98839545112, -69699.24356928392, -47381.80904171575, -32280.188176654363, -50249.7613727762, -28426.702729070515, -0.39, -0.094, 0.918, 192.0, 0.0, 0.0, 0.0, 0.0, 0.0, 0.0, 0.0, 0.0, 0.0, 1.6981680078808615E9, 0.0, 2023-10-24 14:20:07.880
53.0, -57812.76468190726, -64308.695710741966, -60430.53393727946, -69919.69882484661, -46940.11621953443, -32395.992564677308, -49661.709327901524, -27841.73522493067, -0.39, -0.094, 0.918, 192.0, 0.0, 0.0, 0.0, 0.0, 0.0, 0.0, 0.0, 0.0, 0.0, 1.6981680078849175E9, 0.0, 2023-10-24 14:20:07.884
54.0, -58489.21787610267, -60156.32273630175, -59417.93285822069, -70312.01664352616, -47668.09018469932, -28634.19397284913, -51967.44823067763, -30060.503490031184, -0.39, -0.094, 0.918, 192.0, 0.0, 0.0, 0.0, 0.0, 0.0, 0.0, 0.0, 0.0, 0.0, 1.6981680078889232E9, 0.0, 2023-10-24 14:20:07.888
55.0, -58194.68893941509, -58839.67087741743, -59369.07194484138, -70180.47662740668, -48229.99068856129, -27775.59641308742, -53007.20667924961, -31079.810092426553, -0.39, -0.094, 0.918, 192.0, 0.0, 0.0, 0.0, 0.0, 0.0, 0.0, 0.0, 0.0, 0.0, 1.6981680078929043E9, 0.0, 2023-10-24 14:20:07.892
56.0, -57432.24858430011, -63054.96401249934, -60419.71569296309, -69737.24153485794, -47499.893307673134, -31640.391843365654, -50705.960477109016, -28858.829004624964, -0.39, -0.094, 0.918, 192.0, 0.0, 0.0, 0.0, 0.0, 0.0, 0.0, 0.0, 0.0, 0.0, 1.6981680078968987E9, 0.0, 2023-10-24 14:20:07.896
57.0, -57687.594912957546, -64754.14362599178, -60571.41698258126, -69853.56001300336, -46885.37679736338, -32831.29278794441, -49492.64073284158, -27665.33525768939, -0.39, -0.094, 0.918, 192.0, 0.0, 0.0, 0.0, 0.0, 0.0, 0.0, 0.0, 0.0, 0.0, 1.6981680078999624E9, 0.0, 2023-10-24 14:20:07.899
58.0, -58421.80501482547, -60938.432626537404, -59570.997604250624, -70260.49587255668, -47467.259760768386, -29299.828922728175, -51502.062559373684, -29597.598862361774, -0.39, -0.094, 0.918, 192.0, 0.0, 0.0, 0.0, 0.0, 0.0, 0.0, 0.0, 0.0, 0.0, 1.6981680079039392E9, 0.0, 2023-10-24 14:20:07.903
59.0, -58332.04040909296, -58542.32562092849, -59249.9371468946, -70244.64848573787, -48218.2783744667, -27448.97037136202, -53102.1345379513, -31160.768110843674, -0.392, -0.09, 0.924, 192.0, 243.0, 192.0, 253.0, 48.0, 28.0, 224.0, 0.0, 0.0, 0.0, 1.6981680079089372E9, 0.0, 2023-10-24 14:20:07.908
60.0, -57509.33975092647, -62188.05160380025, -60231.44694941604, -69775.68653532106, -47710.58085090886, -30901.219654228647, -51184.53367764159, -29324.348786395647, -0.392, -0.09, 0.924, 192.0, 0.0, 0.0, 0.0, 0.0, 0.0, 0.0, 0.0, 0.0, 0.0, 1.698168007912929E9, 0.0, 2023-10-24 14:20:07.912
61.0, -57535.603050661455, -64921.28997102857, -60623.29538146203, -69750.33965710875, -46915.08226574448, -33057.93947672123, -49389.710949624896, -27576.79999790192, -0.392, -0.09, 0.924, 192.0, 0.0, 0.0, 0.0, 0.0, 0.0, 0.0, 0.0, 0.0, 0.0, 1.69816800791692E9, 0.0, 2023-10-24 14:20:07.916
62.0, -58347.46311276712, -61737.50749081463, -59730.0973212835, -70189.48438042216, -47322.80043635374, -30002.120733513922, -51018.81784424995, -29136.14709808196, -0.392, -0.09, 0.924, 192.0, 0.0, 0.0, 0.0, 0.0, 0.0, 0.0, 0.0, 0.0, 0.0, 1.6981680079210734E9, 0.0, 2023-10-24 14:20:07.921
63.0, -58441.00516331258, -58477.37145154136, -59171.66133781211, -70299.83494279801, -48184.594295572555, -27321.74424192241, -53076.161810894235, -31128.603950572488, -0.392, -0.09, 0.924, 192.0, 0.0, 0.0, 0.0, 0.0, 0.0, 0.0, 0.0, 0.0, 0.0, 1.6981680079249675E9, 0.0, 2023-10-24 14:20:07.924
64.0, -57622.39487438141, -61298.00513958993, -60012.556315965216, -69834.00223660497, -47888.746605962115, -30113.43242090135, -51666.012604953365, -29789.55564374395, -0.392, -0.09, 0.924, 192.0, 0.0, 0.0, 0.0, 0.0, 0.0, 0.0, 0.0, 0.0, 0.0, 1.6981680079279637E9, 0.0, 2023-10-24 14:20:07.927
65.0, -57419.46338647168, -64898.55824691752, -60688.2719025936, -69681.60804290867, -46992.799281215586, -33113.66237564831, -49435.59908099164, -27634.959236974628, -0.392, -0.09, 0.924, 192.0, 0.0, 0.0, 0.0, 0.0, 0.0, 0.0, 0.0, 0.0, 0.0, 1.698168007932011E9, 0.0, 2023-10-24 14:20:07.932
66.0, -58172.80658159335, -62519.32680837236, -59920.489480553806, -70096.16584732126, -47160.25855067475, -30704.524303021946, -50542.83744607418, -28672.884842501266, -0.392, -0.09, 0.924, 192.0, 0.0, 0.0, 0.0, 0.0, 0.0, 0.0, 0.0, 0.0, 0.0, 1.6981680079369977E9, 0.0, 2023-10-24 14:20:07.936
67.0, -58483.652291733306, -58652.966755982256, -59154.11521841469, -70329.74157687921, -48046.03583169411, -27414.43692617857, -52896.31967500683, -30942.324512281957, -0.392, -0.09, 0.924, 192.0, 0.0, 0.0, 0.0, 0.0, 0.0, 0.0, 0.0, 0.0, 0.0, 1.6981680079410653E9, 0.0, 2023-10-24 14:20:07.941
68.0, -57757.354707402556, -60479.99834775906, -59799.901819217426, -69909.97581600855, -47985.61906643141, -29348.153394240548, -52111.616982414365, -30215.22226515082, -0.392, -0.09, 0.924, 192.0, 0.0, 0.0, 0.0, 0.0, 0.0, 0.0, 0.0, 0.0, 0.0, 1.698168007945014E9, 0.0, 2023-10-24 14:20:07.945
69.0, -57361.97469973263, -64655.90770911071, -60667.08244884997, -69642.9842284899, -47063.90018032792, -32944.3255596549, -49622.8619960382, -27814.823724606482, -0.392, -0.09, 0.924, 192.0, 0.0, 0.0, 0.0, 0.0, 0.0, 0.0, 0.0, 0.0, 0.0, 1.6981680079479873E9, 0.0, 2023-10-24 14:20:07.947
70.0, -57994.57377130673, -63243.970363613415, -60086.60764534565, -69988.65395649124, -47004.176319143335, -31376.12716867056, -50126.82677827201, -28275.8731574861, -0.39, -0.09, 0.92, 192.0, 243.0, 208.0, 253.0, 48.0, 28.0, 192.0, 0.0, 0.0, 0.0, 1.698168007951995E9, 0.0, 2023-10-24 14:20:07.951
71.0, -58456.18199779773, -59034.376923367614, -59168.50974184391, -70283.585224579, -47892.166422863775, -27702.39444999629, -52580.1095461976, -30640.151278990663, -0.39, -0.09, 0.92, 192.0, 0.0, 0.0, 0.0, 0.0, 0.0, 0.0, 0.0, 0.0, 0.0, 1.698168007956004E9, 0.0, 2023-10-24 14:20:07.956
72.0, -57825.81810066916, -59659.71167799374, -59558.435923866746, -69946.05153155941, -48090.716968860266, -28602.253330022497, -52481.69481536088, -30569.497414767437, -0.39, -0.09, 0.92, 192.0, 0.0, 0.0, 0.0, 0.0, 0.0, 0.0, 0.0, 0.0, 0.0, 1.6981680079600315E9, 0.0, 2023-10-24 14:20:07.960
73.0, -57290.694986664654, -64115.35312120356, -60569.584139535924, -69609.61307401814, -47208.6947809094, -32544.654017049554, -49922.26361301704, -28101.909530390447, -0.39, -0.09, 0.92, 192.0, 0.0, 0.0, 0.0, 0.0, 0.0, 0.0, 0.0, 0.0, 0.0, 1.6981680079641385E9, 0.0, 2023-10-24 14:20:07.964
74.0, -57884.513781608795, -63884.616063191424, -60296.736394969994, -69930.78529009644, -46936.919920077315, -32004.501760542604, -49785.62739916175, -27939.479403433732, -0.39, -0.09, 0.92, 192.0, 0.0, 0.0, 0.0, 0.0, 0.0, 0.0, 0.0, 0.0, 0.0, 1.6981680079690185E9, 0.0, 2023-10-24 14:20:07.969
75.0, -58431.46096843016, -59653.20732035724, -59292.852496248786, -70263.20043363576, -47746.88008390428, -28194.021069290768, -52187.63526530687, -30258.025855782733, -0.39, -0.09, 0.92, 192.0, 0.0, 0.0, 0.0, 0.0, 0.0, 0.0, 0.0, 0.0, 0.0, 1.698168007973108E9, 0.0, 2023-10-24 14:20:07.973
76.0, -57996.451317840976, -59091.37387172865, -59403.270113858, -70034.36327390233, -48185.33190313958, -28017.12936367147, -52788.04782486532, -30859.310133374947, -0.39, -0.09, 0.92, 192.0, 0.0, 0.0, 0.0, 0.0, 0.0, 0.0, 0.0, 0.0, 0.0, 1.6981680079761224E9, 0.0, 2023-10-24 14:20:07.976
77.0, -57288.325701752394, -63475.42267744812, -60417.43581502865, -69603.19812335946, -47376.243457346376, -31990.554272002493, -50310.535765950175, -28474.915441860612, -0.39, -0.09, 0.92, 192.0, 0.0, 0.0, 0.0, 0.0, 0.0, 0.0, 0.0, 0.0, 0.0, 1.6981680079800377E9, 0.0, 2023-10-24 14:20:07.980
78.0, -57662.829180101064, -64391.5983309267, -60360.72943934554, -69783.86727379171, -46858.55470401701, -32473.03902781475, -49492.17134620802, -27661.647219854265, -0.39, -0.09, 0.92, 192.0, 0.0, 0.0, 0.0, 0.0, 0.0, 0.0, 0.0, 0.0, 0.0, 1.6981680079840732E9, 0.0, 2023-10-24 14:20:07.984
79.0, -58350.949984902145, -60318.21642139154, -59358.56662494739, -70187.38331644336, -47535.65609880163, -28766.69511398019, -51712.437178187036, -29790.784989688993, -0.39, -0.09, 0.92, 192.0, 0.0, 0.0, 0.0, 0.0, 0.0, 0.0, 0.0, 0.0, 0.0, 1.698168007988258E9, 0.0, 2023-10-24 14:20:07.988
80.0, -58140.91064225563, -58609.09028161649, -59226.289001260884, -70106.13472534833, -48180.23570540377, -27547.720378365564, -52959.753925770994, -31010.743202059653, -0.392, -0.092, 0.924, 192.0, 243.0, 192.0, 253.0, 32.0, 28.0, 224.0, 0.0, 0.0, 0.0, 1.6981680079920628E9, 0.0, 2023-10-24 14:20:07.992
81.0, -57379.565522618956, -62673.12916196933, -60273.87056039221, -69653.66836233955, -47548.642462330165, -31305.272138747234, -50772.56867558583, -28916.652967530845, -0.392, -0.092, 0.924, 192.0, 0.0, 0.0, 0.0, 0.0, 0.0, 0.0, 0.0, 0.0, 0.0, 1.6981680079970577E9, 0.0, 2023-10-24 14:20:07.997
82.0, -57577.91490291535, -64755.93176554821, -60524.6347814363, -69718.7566421934, -46851.67036672478, -32844.52502066195, -49334.52449256474, -27513.276340159937, -0.392, -0.092, 0.924, 192.0, 0.0, 0.0, 0.0, 0.0, 0.0, 0.0, 0.0, 0.0, 0.0, 1.698168008001074E9, 0.0, 2023-10-24 14:20:08.001
83.0, -58292.16489698469, -61120.979323503896, -59538.431112579245, -70125.53603953554, -47352.952939623945, -29445.718758787963, -51219.022419336135, -29317.911483992517, -0.392, -0.092, 0.924, 192.0, 0.0, 0.0, 0.0, 0.0, 0.0, 0.0, 0.0, 0.0, 0.0, 1.6981680080041218E9, 0.0, 2023-10-24 14:20:08.004
84.0, -58257.072658189856, -58385.95281671916, -59119.537069742335, -70154.57095558298, -48130.078390846065, -27275.945517533484, -52994.13090874325, -31039.934580318284, -0.392, -0.092, 0.924, 192.0, 0.0, 0.0, 0.0, 0.0, 0.0, 0.0, 0.0, 0.0, 0.0, 1.6981680080080922E9, 0.0, 2023-10-24 14:20:08.008
85.0, -57468.68192776226, -61788.06713677254, -60054.6222990301, -69693.76739189237, -47682.171783706166, -30531.47709744896, -51239.496617257195, -29365.09601653767, -0.392, -0.092, 0.924, 192.0, 0.0, 0.0, 0.0, 0.0, 0.0, 0.0, 0.0, 0.0, 0.0, 1.6981680080120895E9, 0.0, 2023-10-24 14:20:08.012
86.0, -57433.27676454506, -64873.18901696074, -60578.971872207156, -69633.64119930759, -46849.39048879033, -33016.67815645673, -49284.2330675403, -27464.974220392018, -0.392, -0.092, 0.924, 192.0, 0.0, 0.0, 0.0, 0.0, 0.0, 0.0, 0.0, 0.0, 0.0, 1.6981680080160868E9, 0.0, 2023-10-24 14:20:08.016
87.0, -58185.36826197723, -61930.96183907531, -59703.72226282624, -70045.4273874077, -47119.734837977274, -30155.610162688514, -50735.80005595685, -28847.876649841866, -0.392, -0.092, 0.924, 192.0, 0.0, 0.0, 0.0, 0.0, 0.0, 0.0, 0.0, 0.0, 0.0, 1.6981680080201497E9, 0.0, 2023-10-24 14:20:08.020
88.0, -58337.87421439579, -58411.16558446474, -59064.238853959905, -70183.33765069695, -47952.069098004, -27234.14775540206, -52908.68018969062, -30952.963942642684, -0.392, -0.092, 0.924, 192.0, 0.0, 0.0, 0.0, 0.0, 0.0, 0.0, 0.0, 0.0, 0.0, 1.6981680080241344E9, 0.0, 2023-10-24 14:20:08.024
89.0, -57549.639946179384, -60908.43658547838, -59850.729686108796, -69741.1083866487, -47757.094831120354, -29747.73552986807, -51708.5032711629, -29814.902521956268, -0.392, -0.092, 0.924, 192.0, 0.0, 0.0, 0.0, 0.0, 0.0, 0.0, 0.0, 0.0, 0.0, 1.6981680080291688E9, 0.0, 2023-10-24 14:20:08.029
90.0, -57290.851448875845, -64732.77535829251, -60576.870808228356, -69551.78911111226, -46860.253436595616, -32967.05728376595, -49369.25910344829, -27548.189764999126, -0.386, -0.094, 0.93, 192.0, 243.0, 240.0, 253.0, 16.0, 29.0, 16.0, 0.0, 0.0, 0.0, 1.698168008032117E9, 0.0, 2023-10-24 14:20:08.032
91.0, -58021.79819605329, -62672.480961380126, -59877.99881434427, -69946.25269725951, -46968.748804181676, -30842.032234910996, -50281.389091180456, -28407.99431896142, -0.386, -0.094, 0.93, 192.0, 0.0, 0.0, 0.0, 0.0, 0.0, 0.0, 0.0, 0.0, 0.0, 1.698168008036137E9, 0.0, 2023-10-24 14:20:08.036
92.0, -58393.2841889005, -58671.697517835804, -59068.37392668414, -70201.64372940586, -47888.36662630637, -27401.919949283594, -52682.30172184727, -30730.385271356736, -0.386, -0.094, 0.93, 192.0, 0.0, 0.0, 0.0, 0.0, 0.0, 0.0, 0.0, 0.0, 0.0, 1.6981680080401394E9, 0.0, 2023-10-24 14:20:08.040
93.0, -57693.585180471564, -60092.955540770956, -59632.80017766955, -69828.54841095787, -47939.6638798313, -28992.82771263453, -52145.07754386396, -30231.27081766973, -0.386, -0.094, 0.93, 192.0, 0.0, 0.0, 0.0, 0.0, 0.0, 0.0, 0.0, 0.0, 0.0, 1.6981680080442045E9, 0.0, 2023-10-24 14:20:08.044
94.0, -57295.67942567819, -64412.67602594806, -60545.332496801915, -69548.32459072168, -47031.78072354564, -32741.416423489623, -49615.977658745964, -27789.49919813862, -0.386, -0.094, 0.93, 192.0, 0.0, 0.0, 0.0, 0.0, 0.0, 0.0, 0.0, 0.0, 0.0, 1.6981680080481632E9, 0.0, 2023-10-24 14:20:08.048
95.0, -57871.21449365789, -63421.823194244294, -60057.46097057593, -69868.91566144415, -46900.33011440398, -31514.0374319598, -49899.9789237951, -28048.31004718662, -0.386, -0.094, 0.93, 192.0, 0.0, 0.0, 0.0, 0.0, 0.0, 0.0, 0.0, 0.0, 0.0, 1.6981680080532465E9, 0.0, 2023-10-24 14:20:08.053
96.0, -58350.815874435415, -59159.457285339515, -59118.66535170858, -70179.89548205084, -47763.956816668135, -27764.93463098224, -52349.55130214111, -30412.92344485801, -0.386, -0.094, 0.93, 192.0, 0.0, 0.0, 0.0, 0.0, 0.0, 0.0, 0.0, 0.0, 0.0, 1.69816800805719E9, 0.0, 2023-10-24 14:20:08.057
97.0, -57800.694739901395, -59372.29059604295, -59428.63934381478, -69883.22077789555, -48046.30405262757, -28301.9799950099, -52486.96982705234, -30568.67040022259, -0.386, -0.094, 0.93, 192.0, 0.0, 0.0, 0.0, 0.0, 0.0, 0.0, 0.0, 0.0, 0.0, 1.698168008060198E9, 0.0, 2023-10-24 14:20:08.060
98.0, -57177.12577308724, -63832.15651895482, -60426.085940132856, -69495.7979912517, -47173.28961769219, -32276.947173708344, -49920.36371473834, -28098.243844299777, -0.386, -0.094, 0.93, 192.0, 0.0, 0.0, 0.0, 0.0, 0.0, 0.0, 0.0, 0.0, 0.0, 1.6981680080641592E9, 0.0, 2023-10-24 14:20:08.064
99.0, -57693.02638686018, -63998.38644246894, -60204.55780083631, -69760.80027351383, -46816.3993139743, -32074.127444520887, -49554.17508532704, -27718.48770600411, -0.386, -0.094, 0.93, 192.0, 0.0, 0.0, 0.0, 0.0, 0.0, 0.0, 0.0, 0.0, 0.0, 1.6981680080681612E9, 0.0, 2023-10-24 14:20:08.068
100.0, -58338.656525451726, -59789.10592664551, -59240.39295201218, -70144.11033917789, -47595.402311730664, -28290.06651521522, -51923.7058667786, -29992.21891072022, -0.382, -0.092, 0.932, 192.0, 244.0, 16.0, 253.0, 32.0, 29.0, 32.0, 0.0, 0.0, 0.0, 1.6981680080721617E9, 0.0, 2023-10-24 14:20:08.072
101.0, -57991.17630614952, -58820.336618463596, -59276.40161232968, -69977.9698226416, -48105.37971322295, -27756.977409956147, -52763.930292598045, -30825.223723080606, -0.382, -0.092, 0.932, 192.0, 0.0, 0.0, 0.0, 0.0, 0.0, 0.0, 0.0, 0.0, 0.0, 1.6981680080763168E9, 0.0, 2023-10-24 14:20:08.076
102.0, -57278.401527214235, -63132.25634482579, -60307.37582533072, -69545.70943662041, -47312.071599015195, -31687.039934043878, -50368.40443234497, -28522.658768017147, -0.382, -0.092, 0.932, 192.0, 0.0, 0.0, 0.0, 0.0, 0.0, 0.0, 0.0, 0.0, 0.0, 1.6981680080812123E9, 0.0, 2023-10-24 14:20:08.081
103.0, -57564.30269054207, -64460.24053814895, -60344.74794205999, -69676.46714168396, -46720.219757583116, -32530.48301106489, -49322.096922647586, -27491.796313738385, -0.382, -0.092, 0.932, 192.0, 0.0, 0.0, 0.0, 0.0, 0.0, 0.0, 0.0, 0.0, 0.0, 1.6981680080842044E9, 0.0, 2023-10-24 14:20:08.084
104.0, -58286.44285040413, -60538.22464206513, -59371.30711928691, -70092.0978298304, -47374.54472476777, -28917.21176114223, -51454.52039891725, -29534.499887764443, -0.382, -0.092, 0.932, 192.0, 0.0, 0.0, 0.0, 0.0, 0.0, 0.0, 0.0, 0.0, 0.0, 1.698168008087202E9, 0.0, 2023-10-24 14:20:08.087
105.0, -58135.59092707526, -58462.172265311754, -59122.08516861024, -70045.3826839188, -48086.82776532505, -27357.954067940005, -52898.2866285189, -30943.21858206017, -0.382, -0.092, 0.932, 192.0, 0.0, 0.0, 0.0, 0.0, 0.0, 0.0, 0.0, 0.0, 0.0, 1.698168008092219E9, 0.0, 2023-10-24 14:20:08.092
106.0, -57330.92812668421, -62311.54499191583, -60119.28589573931, -69573.64911718955, -47512.03030491237, -30960.116500868382, -50829.81149313587, -28967.480834422215, -0.382, -0.092, 0.932, 192.0, 0.0, 0.0, 0.0, 0.0, 0.0, 0.0, 0.0, 0.0, 0.0, 1.6981680080963416E9, 0.0, 2023-10-24 14:20:08.096
107.0, -57438.641183214335, -64745.7840735655, -60453.84680674635, -69601.49939078085, -46772.500487864076, -32839.13825024822, -49206.046665435635, -27388.978289243973, -0.382, -0.092, 0.932, 192.0, 0.0, 0.0, 0.0, 0.0, 0.0, 0.0, 0.0, 0.0, 0.0, 1.6981680081002233E9, 0.0, 2023-10-24 14:20:08.100
108.0, -58207.787061665906, -61334.3267243298, -59517.465176280166, -70023.9250092417, -47223.22341480535, -29597.95649027306, -50955.584759185884, -29058.251268655215, -0.382, -0.092, 0.932, 192.0, 0.0, 0.0, 0.0, 0.0, 0.0, 0.0, 0.0, 0.0, 0.0, 1.6981680081042497E9, 0.0, 2023-10-24 14:20:08.104
109.0, -58267.71208855058, -58329.64877243624, -59054.091161977194, -70106.33589104842, -48060.05037546759, -27154.37437944107, -52899.85125063077, -30939.217619802672, -0.382, -0.092, 0.932, 192.0, 0.0, 0.0, 0.0, 0.0, 0.0, 0.0, 0.0, 0.0, 0.0, 1.698168008108264E9, 0.0, 2023-10-24 14:20:08.108
110.0, -57462.334032336956, -61432.36147551078, -59958.46509438338, -69650.31560067125, -47696.834528068845, -30181.649944978948, -51332.368115469, -29443.416529109065, -0.382, -0.092, 0.932, 192.0, 0.0, 0.0, 0.0, 0.0, 0.0, 0.0, 0.0, 0.0, 0.0, 1.698168008112239E9, 0.0, 2023-10-24 14:20:08.112
111.0, -57312.19736483066, -64780.25046351558, -60496.806859589444, -69529.14679397903, -46813.73945638412, -32932.99322521606, -49216.44022660735, -27393.64980383513, -0.386, -0.096, 0.934, 192.0, 243.0, 240.0, 253.0, 0.0, 29.0, 48.0, 0.0, 0.0, 0.0, 1.6981680081152315E9, 0.0, 2023-10-24 14:20:08.115
112.0, -58049.11202777768, -62104.590190004135, -59666.12662865241, -69933.75807210899, -47049.3044911986, -30296.828484157144, -50490.37790183758, -28607.461286480582, -0.386, -0.096, 0.934, 192.0, 0.0, 0.0, 0.0, 0.0, 0.0, 0.0, 0.0, 0.0, 0.0, 1.6981680081202772E9, 0.0, 2023-10-24 14:20:08.120
113.0, -58311.56621117189, -58404.10243321687, -58991.81920192471, -70126.43010931375, -47954.90776954982, -27178.626022175078, -52770.725222912464, -30817.6241299658, -0.386, -0.096, 0.934, 192.0, 0.0, 0.0, 0.0, 0.0, 0.0, 0.0, 0.0, 0.0, 0.0, 1.6981680081242228E9, 0.0, 2023-10-24 14:20:08.124
114.0, -57549.997574090674, -60567.12544764584, -59711.187745474315, -69708.02780485485, -47838.72340187114, -29404.72565945693, -51795.11628092722, -29904.53301722205, -0.386, -0.096, 0.934, 192.0, 0.0, 0.0, 0.0, 0.0, 0.0, 0.0, 0.0, 0.0, 0.0, 1.6981680081282759E9, 0.0, 2023-10-24 14:20:08.128
115.0, -57226.813701011386, -64606.13037420874, -60510.46377545164, -69481.22465386686, -46904.08520747247, -32839.78645083743, -49362.91120802298, -27557.51044243699, -0.386, -0.096, 0.934, 192.0, 0.0, 0.0, 0.0, 0.0, 0.0, 0.0, 0.0, 0.0, 0.0, 1.698168008132305E9, 0.0, 2023-10-24 14:20:08.132
116.0, -57918.86841283661, -62883.43672554931, -59886.447773748376, -69858.54445201688, -46893.04344571155, -31006.608129335422, -50073.45081251274, -28219.993796347833, -0.386, -0.096, 0.934, 192.0, 0.0, 0.0, 0.0, 0.0, 0.0, 0.0, 0.0, 0.0, 0.0, 1.698168008137355E9, 0.0, 2023-10-24 14:20:08.137
117.0, -58300.6585598777, -58745.39121930495, -59037.55087108027, -70132.5544872945, -47787.98494195759, -27431.08897579777, -52522.79967341419, -30580.360362572716, -0.386, -0.096, 0.934, 192.0, 0.0, 0.0, 0.0, 0.0, 0.0, 0.0, 0.0, 0.0, 0.0, 1.698168008140313E9, 0.0, 2023-10-24 14:20:08.140
118.0, -57652.56972939608, -59752.292603527625, -59508.3456645424, -69776.98293649948, -47916.03808594204, -28657.52919406047, -52214.166785975314, -30298.169588824465, -0.386, -0.096, 0.934, 192.0, 0.0, 0.0, 0.0, 0.0, 0.0, 0.0, 0.0, 0.0, 0.0, 1.6981680081432712E9, 0.0, 2023-10-24 14:20:08.143
119.0, -57154.17053153164, -64169.22082534085, -60461.15582718323, -69458.24706056679, -47011.44063609131, -32523.10693539464, -49647.247749238944, -27826.491335212155, -0.386, -0.096, 0.934, 192.0, 0.0, 0.0, 0.0, 0.0, 0.0, 0.0, 0.0, 0.0, 0.0, 1.6981680081483593E9, 0.0, 2023-10-24 14:20:08.148
120.0, -57754.71720155683, -63560.471065100566, -60057.997412442855, -69769.00336372893, -46790.27012470605, -31638.98368346497, -49696.28747657388, -27851.726454702195, -0.386, -0.096, 0.934, 192.0, 0.0, 0.0, 0.0, 0.0, 0.0, 0.0, 0.0, 0.0, 0.0, 1.6981680081523411E9, 0.0, 2023-10-24 14:20:08.152
121.0, -58341.29403129745, -59299.759185285475, -59127.49429076842, -70129.89462970431, -47649.49353331251, -27862.164719362823, -52161.72959348316, -30222.79950652117, -0.39, -0.1, 0.936, 192.0, 243.0, 208.0, 252.0, 224.0, 29.0, 64.0, 0.0, 0.0, 0.0, 1.698168008156454E9, 0.0, 2023-10-24 14:20:08.156
122.0, -57862.78788599824, -59104.67315967956, -59357.158465046705, -69876.06821966985, -48025.5839855175, -28035.234276680265, -52560.79763898822, -30627.567246862323, -0.39, -0.1, 0.936, 192.0, 0.0, 0.0, 0.0, 0.0, 0.0, 0.0, 0.0, 0.0, 0.0, 1.6981680081603053E9, 0.0, 2023-10-24 14:20:08.160
123.0, -57202.51735478847, -63573.949167007115, -60364.10455275829, -69463.05268562469, -47184.53254515321, -32038.34230164794, -50022.77940783255, -28194.53515941324, -0.39, -0.1, 0.936, 192.0, 0.0, 0.0, 0.0, 0.0, 0.0, 0.0, 0.0, 0.0, 0.0, 1.698168008163299E9, 0.0, 2023-10-24 14:20:08.163
124.0, -57645.39481942592, -64152.70288618838, -60223.73559757896, -69687.28538600032, -46744.22553112812, -32200.168931504362, -49416.93537437146, -27587.819407918385, -0.39, -0.1, 0.936, 192.0, 0.0, 0.0, 0.0, 0.0, 0.0, 0.0, 0.0, 0.0, 0.0, 1.698168008167331E9, 0.0, 2023-10-24 14:20:08.167
125.0, -58316.72946414107, -59991.76919362178, -59219.31525699083, -70084.0959053154, -47439.521245899356, -28428.088537226744, -51723.545995181325, -29793.333088556898, -0.39, -0.1, 0.936, 192.0, 0.0, 0.0, 0.0, 0.0, 0.0, 0.0, 0.0, 0.0, 0.0, 1.698168008171321E9, 0.0, 2023-10-24 14:20:08.171
126.0, -58020.25592568588, -58603.16706933583, -59162.586529563254, -69954.50049096352, -47996.54906947006, -27522.52996236443, -52785.23150506395, -30835.505525530047, -0.39, -0.1, 0.936, 192.0, 0.0, 0.0, 0.0, 0.0, 0.0, 0.0, 0.0, 0.0, 0.0, 1.6981680081764517E9, 0.0, 2023-10-24 14:20:08.176
127.0, -57270.913692821705, -62796.130811706884, -60217.23123994246, -69498.3013866307, -47312.071599015195, -31383.994982718825, -50480.498430788335, -28624.538019244435, -0.39, -0.1, 0.936, 192.0, 0.0, 0.0, 0.0, 0.0, 0.0, 0.0, 0.0, 0.0, 0.0, 1.698168008180382E9, 0.0, 2023-10-24 14:20:08.180
128.0, -57521.968486543716, -64535.52121347442, -60352.50399738598, -69597.81135294573, -46676.097414028336, -32605.137837545615, -49220.64235456495, -27387.257204920916, -0.39, -0.1, 0.936, 192.0, 0.0, 0.0, 0.0, 0.0, 0.0, 0.0, 0.0, 0.0, 0.0, 1.6981680081844692E9, 0.0, 2023-10-24 14:20:08.184
129.0, -58255.50803607798, -60777.18714203682, -59389.68025322918, -70030.16114594473, -47281.02502596677, -29108.38623146847, -51250.91835867386, -29328.819135286707, -0.39, -0.1, 0.936, 192.0, 0.0, 0.0, 0.0, 0.0, 0.0, 0.0, 0.0, 0.0, 0.0, 1.6981680081884575E9, 0.0, 2023-10-24 14:20:08.188
130.0, -58197.70642491656, -58348.73716220107, -59082.18730475751, -70045.4273874077, -48062.531419102124, -27229.4762408109, -52904.54511696639, -30935.127250567348, -0.39, -0.1, 0.936, 192.0, 0.0, 0.0, 0.0, 0.0, 0.0, 0.0, 0.0, 0.0, 0.0, 1.6981680081914573E9, 0.0, 2023-10-24 14:20:08.191
131.0, -57370.44601088119, -61965.83056042559, -60036.249165087844, -69553.80076811323, -47535.41022961262, -30652.265924485437, -50979.25525656406, -29097.076248774083, -0.39, -0.098, 0.934, 192.0, 243.0, 208.0, 252.0, 240.0, 29.0, 48.0, 0.0, 0.0, 0.0, 1.6981680081954384E9, 0.0, 2023-10-24 14:20:08.195
132.0, -57359.96304273165, -64758.74808534957, -60459.211225415616, -69506.86210475709, -46719.303336060446, -32859.9030208472, -49145.853417617494, -27314.479924974436, -0.39, -0.098, 0.934, 192.0, 0.0, 0.0, 0.0, 0.0, 0.0, 0.0, 0.0, 0.0, 0.0, 1.6981680081993947E9, 0.0, 2023-10-24 14:20:08.199
133.0, -58133.467511352006, -61557.53124446049, -59533.044342165515, -69939.30130473392, -47109.20716633883, -29801.960861916647, -50764.8349720043, -28851.028245810063, -0.39, -0.098, 0.934, 192.0, 0.0, 0.0, 0.0, 0.0, 0.0, 0.0, 0.0, 0.0, 0.0, 1.6981680082033908E9, 0.0, 2023-10-24 14:20:08.203
134.0, -58256.647975045205, -58256.44680934511, -58953.75418111732, -70066.01334405105, -47985.149679797854, -27083.45229428438, -52848.21872093901, -30868.80962476845, -0.39, -0.098, 0.934, 192.0, 0.0, 0.0, 0.0, 0.0, 0.0, 0.0, 0.0, 0.0, 0.0, 1.6981680082084436E9, 0.0, 2023-10-24 14:20:08.208
135.0, -57446.93368040725, -61055.7122296944, -59796.2137813823, -69613.77049848682, -47706.132853762254, -29859.091920744413, -51468.736108390825, -29560.85259447725, -0.39, -0.098, 0.934, 192.0, 0.0, 0.0, 0.0, 0.0, 0.0, 0.0, 0.0, 0.0, 0.0, 1.6981680082124083E9, 0.0, 2023-10-24 14:20:08.212
136.0, -57231.23934641354, -64673.207959319116, -60462.38517312827, -69454.44726400939, -46802.09419752291, -32891.91071890721, -49224.66566856691, -27390.721725311487, -0.39, -0.098, 0.934, 192.0, 0.0, 0.0, 0.0, 0.0, 0.0, 0.0, 0.0, 0.0, 0.0, 1.6981680082164018E9, 0.0, 2023-10-24 14:20:08.216
137.0, -57978.72638448792, -62325.82775662277, -59713.02058851965, -69868.73684748852, -46947.02290857112, -30519.295396720816, -50320.0799608326, -28420.667758067582, -0.39, -0.098, 0.934, 192.0, 0.0, 0.0, 0.0, 0.0, 0.0, 0.0, 0.0, 0.0, 0.0, 1.6981680082193975E9, 0.0, 2023-10-24 14:20:08.219
138.0, -58306.291199480445, -58435.03724754301, -58952.301317727724, -70107.76640269357, -47839.34925071589, -27202.7212026979, -52685.85564921566, -30701.707983220578, -0.39, -0.098, 0.934, 192.0, 0.0, 0.0, 0.0, 0.0, 0.0, 0.0, 0.0, 0.0, 0.0, 1.6981680082234E9, 0.0, 2023-10-24 14:20:08.223
139.0, -57587.63791175341, -60208.29054216034, -59594.08695627296, -69713.9510171355, -47819.47854989512, -29095.80219934013, -51937.56394834089, -30000.198483490763, -0.39, -0.098, 0.934, 192.0, 0.0, 0.0, 0.0, 0.0, 0.0, 0.0, 0.0, 0.0, 0.0, 1.6981680082274184E9, 0.0, 2023-10-24 14:20:08.227
140.0, -57193.93428491763, -64425.03654063184, -60457.601899814836, -69451.87681339703, -46900.48657661517, -32720.539894168367, -49435.50967401382, -27585.98656487305, -0.39, -0.098, 0.934, 192.0, 0.0, 0.0, 0.0, 0.0, 0.0, 0.0, 0.0, 0.0, 0.0, 1.698168008231743E9, 0.0, 2023-10-24 14:20:08.231
141.0, -57871.28154889125, -63084.378908202525, -59907.391358303, -69811.04699504936, -46845.054250366, -31201.828265408072, -49921.10132230537, -28031.322721400586, -0.39, -0.098, 0.934, 192.0, 0.0, 0.0, 0.0, 0.0, 0.0, 0.0, 0.0, 0.0, 0.0, 1.698168008236468E9, 0.0, 2023-10-24 14:20:08.236
142.0, -58350.70411571314, -58877.60178775809, -59021.14469065007, -70134.6555512733, -47764.42620330169, -27528.810802556374, -52412.20324184933, -30430.626026466613, -0.39, -0.094, 0.922, 192.0, 243.0, 208.0, 253.0, 16.0, 28.0, 208.0, 0.0, 0.0, 0.0, 1.6981680082404952E9, 0.0, 2023-10-24 14:20:08.240
143.0, -57759.455771381356, -59487.37972824332, -59427.14177693627, -69826.55910570135, -47995.45383399175, -28414.453973109004, -52365.801020360115, -30404.474485453906, -0.39, -0.094, 0.922, 192.0, 0.0, 0.0, 0.0, 0.0, 0.0, 0.0, 0.0, 0.0, 0.0, 1.69816800824351E9, 0.0, 2023-10-24 14:20:08.243
144.0, -57178.69039519911, -63949.905508745374, -60417.56992549538, -69454.33550528712, -47092.39865450843, -32364.476604995325, -49773.490401922514, -27911.316205420044, -0.39, -0.094, 0.922, 192.0, 0.0, 0.0, 0.0, 0.0, 0.0, 0.0, 0.0, 0.0, 0.0, 1.6981680082474828E9, 0.0, 2023-10-24 14:20:08.247
145.0, -57730.10793091154, -63742.503671944585, -60100.97981703041, -69734.38051156765, -46787.476156649136, -31832.281569514464, -49599.54912657131, -27717.14660133679, -0.39, -0.094, 0.922, 192.0, 0.0, 0.0, 0.0, 0.0, 0.0, 0.0, 0.0, 0.0, 0.0, 1.6981680082514627E9, 0.0, 2023-10-24 14:20:08.251
146.0, -58331.07928408138, -59476.71794613814, -59122.666313966074, -70097.3504897774, -47599.00094258797, -28024.103107941522, -52019.01370513603, -30038.263504298153, -0.39, -0.094, 0.922, 192.0, 0.0, 0.0, 0.0, 0.0, 0.0, 0.0, 0.0, 0.0, 0.0, 1.6981680082555432E9, 0.0, 2023-10-24 14:20:08.255
147.0, -57895.98022651437, -58863.14020909551, -59237.330763021804, -69874.54830104689, -48052.69665154179, -27811.627425149374, -52650.58459646519, -30666.906317103665, -0.39, -0.094, 0.922, 192.0, 0.0, 0.0, 0.0, 0.0, 0.0, 0.0, 0.0, 0.0, 0.0, 1.6981680082594516E9, 0.0, 2023-10-24 14:20:08.259
148.0, -57203.523183288955, -63271.39595406008, -60271.47892373549, -69437.2364207788, -47249.39730756251, -31794.261252195985, -50166.23290374671, -28280.477616843895, -0.39, -0.094, 0.922, 192.0, 0.0, 0.0, 0.0, 0.0, 0.0, 0.0, 0.0, 0.0, 0.0, 1.698168008264458E9, 0.0, 2023-10-24 14:20:08.264
