%OpenBCI Raw EXG Data
%Number of channels = 8
%Sample Rate = 250 Hz
%Board = OpenBCI_GUI$BoardCytonSerial
Sample Index, EXG Channel 0, EXG Channel 1, EXG Channel 2, EXG Channel 3, EXG Channel 4, EXG Channel 5, EXG Channel 6, EXG Channel 7, Accel Channel 0, Accel Channel 1, Accel Channel 2, Other, Other, Other, Other, Other, Other, Other, Analog Channel 0, Analog Channel 1, Analog Channel 2, Timestamp, Other, Timestamp (Formatted)
74.0, -43120.359554333634, -50376.22754290433, -47559.751279324446, -60475.148019212254, -33127.34164325496, -20174.148103493226, -30813.690222941666, -16783.477876600966, 0.0, 0.0, 0.0, 192.0, 0.0, 0.0, 0.0, 0.0, 0.0, 0.0, 0.0, 0.0, 0.0, 1.6981679675086508E9, 0.0, 2023-10-24 14:19:27.508
75.0, -43070.29164675375, -45516.69007738711, -45716.805245495474, -60121.81164286276, -32758.15788008665, -15458.332354823633, -32041.605656338415, -17937.8337189953, 0.0, 0.0, 0.0, 192.0, 0.0, 0.0, 0.0, 0.0, 0.0, 0.0, 0.0, 0.0, 0.0, 1.6981679675086675E9, 0.0, 2023-10-24 14:19:27.508
0.0, -50587.07154835124, -53035.66044994121, -52806.59977276323, -65678.65648015219, -40136.37931780569, -21698.313557900616, -41049.85041020518, -23826.154926556937, -0.39, -0.09, 0.92, 192.0, 243.0, 208.0, 253.0, 48.0, 28.0, 192.0, 0.0, 0.0, 0.0, 1.6981679676328912E9, 0.0, 2023-10-24 14:19:27.632
1.0, -49794.43398647714, -49498.25102069986, -51830.05205751086, -65174.244663029276, -40462.33480719743, -18492.46990590929, -42455.953950399635, -25171.729942766422, -0.39, -0.09, 0.92, 192.0, 0.0, 0.0, 0.0, 0.0, 0.0, 0.0, 0.0, 0.0, 0.0, 1.6981679676368806E9, 0.0, 2023-10-24 14:19:27.636
2.0, -49663.45276396904, -53934.80407414485, -53619.08568371364, -65388.32967142221, -40720.76567658969, -23030.254009992364, -41168.225248840485, -23984.94171916744, -0.39, -0.09, 0.92, 192.0, 0.0, 0.0, 0.0, 0.0, 0.0, 0.0, 0.0, 0.0, 0.0, 1.6981679676409965E9, 0.0, 2023-10-24 14:19:27.640
3.0, -50460.96300613439, -57916.43207269098, -54731.956688398925, -65932.77346286458, -40418.77125725404, -26662.859518868867, -39641.57875079856, -22523.115280045902, -0.39, -0.09, 0.92, 192.0, 0.0, 0.0, 0.0, 0.0, 0.0, 0.0, 0.0, 0.0, 0.0, 1.6981679676449344E9, 0.0, 2023-10-24 14:19:27.644
4.0, -50662.41927891008, -54100.92223893669, -53182.04202437902, -65779.37344066781, -40142.28017834189, -22732.841698270047, -40698.704504812304, -23495.438515596215, -0.39, -0.09, 0.92, 192.0, 0.0, 0.0, 0.0, 0.0, 0.0, 0.0, 0.0, 0.0, 0.0, 1.6981679676479335E9, 0.0, 2023-10-24 14:19:27.647
5.0, -49964.57546527094, -49586.495707809416, -51857.65646191317, -65249.86061452158, -40426.90729223577, -18498.303711212124, -42405.0590282749, -25119.53861946328, -0.39, -0.09, 0.92, 192.0, 0.0, 0.0, 0.0, 0.0, 0.0, 0.0, 0.0, 0.0, 0.0, 1.6981679676518965E9, 0.0, 2023-10-24 14:19:27.651
6.0, -49650.08642078476, -52887.60249466926, -53261.79304859556, -65329.25401082683, -40768.50900274623, -21961.05831397275, -41574.110576404404, -24368.475302276052, -0.39, -0.09, 0.92, 192.0, 0.0, 0.0, 0.0, 0.0, 0.0, 0.0, 0.0, 0.0, 0.0, 1.6981679676559732E9, 0.0, 2023-10-24 14:19:27.655
7.0, -50349.87483619152, -57827.315667547664, -54783.74568030187, -65895.31193915749, -40521.72339221518, -26636.260942967052, -39763.462813313345, -22643.1441477709, -0.39, -0.08600000000000001, 0.916, 192.0, 243.0, 208.0, 253.0, 80.0, 28.0, 160.0, 0.0, 0.0, 0.0, 1.6981679676609776E9, 0.0, 2023-10-24 14:19:27.660
8.0, -50707.59215445425, -55143.67582126568, -53525.2307087458, -65859.795017218, -40149.61155052323, -23742.045312171616, -40370.31267527493, -23178.244910030953, -0.39, -0.08600000000000001, 0.916, 192.0, 0.0, 0.0, 0.0, 0.0, 0.0, 0.0, 0.0, 0.0, 0.0, 1.698167967665131E9, 0.0, 2023-10-24 14:19:27.665
9.0, -50072.95907413472, -49916.183938525195, -51834.41064767965, -65300.75553664631, -40321.67527934018, -18755.482882914886, -42210.93412768056, -24921.79273626718, -0.39, -0.08600000000000001, 0.916, 192.0, 0.0, 0.0, 0.0, 0.0, 0.0, 0.0, 0.0, 0.0, 0.0, 1.6981679676689713E9, 0.0, 2023-10-24 14:19:27.668
10.0, -49586.696873509514, -51790.57887680279, -52830.426732352586, -65220.0433874182, -40729.77342960518, -20889.158056874046, -41881.96115278735, -24652.25304988063, -0.39, -0.08600000000000001, 0.916, 192.0, 0.0, 0.0, 0.0, 0.0, 0.0, 0.0, 0.0, 0.0, 0.0, 1.6981679676729758E9, 0.0, 2023-10-24 14:19:27.672
11.0, -50188.98697960222, -57404.21949675316, -54697.80322287122, -65791.93512105169, -40612.717343892735, -26284.064505584778, -39953.899676072564, -22833.22338261883, -0.39, -0.08600000000000001, 0.916, 192.0, 0.0, 0.0, 0.0, 0.0, 0.0, 0.0, 0.0, 0.0, 0.0, 1.6981679676760156E9, 0.0, 2023-10-24 14:19:27.676
12.0, -50746.908872951135, -56094.31786469434, -53906.05973077533, -65936.72972163316, -40216.420914700146, -24716.447259956272, -40115.48043673998, -22943.19396533894, -0.39, -0.08600000000000001, 0.916, 192.0, 0.0, 0.0, 0.0, 0.0, 0.0, 0.0, 0.0, 0.0, 0.0, 1.6981679676799757E9, 0.0, 2023-10-24 14:19:27.679
13.0, -50272.73896607626, -50559.95888232695, -52022.05354238195, -65431.80381438778, -40297.3118778839, -19371.184035680777, -42005.90157579203, -24719.777669880114, -0.39, -0.08600000000000001, 0.916, 192.0, 0.0, 0.0, 0.0, 0.0, 0.0, 0.0, 0.0, 0.0, 0.0, 1.6981679676839805E9, 0.0, 2023-10-24 14:19:27.683
14.0, -49619.46453088099, -50856.879455671246, -52491.641341643495, -65187.20867481336, -40697.07282746707, -19971.462484772503, -42183.57559246726, -24923.245599656773, -0.39, -0.08600000000000001, 0.916, 192.0, 0.0, 0.0, 0.0, 0.0, 0.0, 0.0, 0.0, 0.0, 0.0, 1.6981679676880095E9, 0.0, 2023-10-24 14:19:27.688
15.0, -50040.19141676324, -56690.818868973125, -54520.352723640535, -65685.49611395551, -40671.457728321286, -25648.425596764755, -40239.37615625574, -23099.544417803816, -0.39, -0.08600000000000001, 0.916, 192.0, 0.0, 0.0, 0.0, 0.0, 0.0, 0.0, 0.0, 0.0, 0.0, 1.69816796769316E9, 0.0, 2023-10-24 14:19:27.693
16.0, -50740.15864612564, -56911.721159424924, -54240.53123480454, -65968.6256609709, -40264.655979234696, -25535.81750819892, -39880.138919370045, -22723.364558620997, -0.39, -0.08600000000000001, 0.916, 192.0, 0.0, 0.0, 0.0, 0.0, 0.0, 0.0, 0.0, 0.0, 0.0, 1.698167967696962E9, 0.0, 2023-10-24 14:19:27.696
17.0, -50402.4461391504, -51420.433988622906, -52271.00727212516, -65504.37992863416, -40225.361612482266, -20146.36488513528, -41647.603112173456, -24377.63951750273, -0.39, -0.09, 0.92, 192.0, 243.0, 208.0, 253.0, 48.0, 28.0, 192.0, 0.0, 0.0, 0.0, 1.6981679677000928E9, 0.0, 2023-10-24 14:19:27.700
18.0, -49657.59660692175, -50133.10761846395, -52159.74028822664, -65134.14563347646, -40633.52681798063, -19198.919141163726, -42360.26613238647, -25082.702944600936, -0.39, -0.09, 0.92, 192.0, 0.0, 0.0, 0.0, 0.0, 0.0, 0.0, 0.0, 0.0, 0.0, 1.6981679677040317E9, 0.0, 2023-10-24 14:19:27.704
19.0, -49911.24420300057, -55783.22628536538, -54232.1493306338, -65581.98518538299, -40754.65092118394, -24782.98840319972, -40603.75429436616, -23439.425043991214, -0.39, -0.09, 0.92, 192.0, 0.0, 0.0, 0.0, 0.0, 0.0, 0.0, 0.0, 0.0, 0.0, 1.6981679677080214E9, 0.0, 2023-10-24 14:19:27.708
20.0, -50697.51151770491, -57547.069495567026, -54542.95033728485, -66006.31070212254, -40353.68297740018, -26195.12691439711, -39754.41035680895, -22604.453278118763, -0.39, -0.09, 0.92, 192.0, 0.0, 0.0, 0.0, 0.0, 0.0, 0.0, 0.0, 0.0, 0.0, 1.6981679677120016E9, 0.0, 2023-10-24 14:19:27.712
21.0, -50526.61007959963, -52407.03998888016, -52601.187241218955, -65609.72370025203, -40178.08767295929, -21090.927254072103, -41295.71959921355, -24035.85899303663, -0.39, -0.09, 0.92, 192.0, 0.0, 0.0, 0.0, 0.0, 0.0, 0.0, 0.0, 0.0, 0.0, 1.698167967715986E9, 0.0, 2023-10-24 14:19:27.715
22.0, -49736.40885787116, -49660.41292672312, -51948.38219265726, -65138.81714806762, -40547.53965706106, -18681.45390527891, -42451.66241546421, -25150.674599489525, -0.39, -0.09, 0.92, 192.0, 0.0, 0.0, 0.0, 0.0, 0.0, 0.0, 0.0, 0.0, 0.0, 1.6981679677210944E9, 0.0, 2023-10-24 14:19:27.721
23.0, -49777.625474646746, -54692.57291466867, -53907.98198079848, -65470.0029456619, -40776.376816794495, -23744.436948828334, -40962.99153125186, -23772.80131254212, -0.39, -0.09, 0.92, 192.0, 0.0, 0.0, 0.0, 0.0, 0.0, 0.0, 0.0, 0.0, 0.0, 1.6981679677250054E9, 0.0, 2023-10-24 14:19:27.725
24.0, -50579.896638381084, -57877.674147805476, -54759.583444545686, -65971.03964937206, -40419.33005086542, -26593.12207616831, -39653.80515501561, -22514.778079364074, -0.39, -0.09, 0.92, 192.0, 0.0, 0.0, 0.0, 0.0, 0.0, 0.0, 0.0, 0.0, 0.0, 1.698167967728096E9, 0.0, 2023-10-24 14:19:27.728
25.0, -50658.15009571912, -53491.703092062846, -53013.95690607511, -65735.36285583531, -40184.122643962226, -22137.637095169677, -40938.58342630666, -23700.940454118307, -0.39, -0.09, 0.92, 192.0, 0.0, 0.0, 0.0, 0.0, 0.0, 0.0, 0.0, 0.0, 0.0, 1.698167967732086E9, 0.0, 2023-10-24 14:19:27.732
26.0, -49905.05276978645, -49548.72125967995, -51842.4349239391, -65221.04921591869, -40501.60682220541, -18486.211417461804, -42478.70802625514, -25171.88640497761, -0.39, -0.09, 0.92, 192.0, 0.0, 0.0, 0.0, 0.0, 0.0, 0.0, 0.0, 0.0, 0.0, 1.6981679677360277E9, 0.0, 2023-10-24 14:19:27.736
27.0, -49703.41768305513, -53578.539619271716, -53478.24734190075, -65378.20433118395, -40796.78395948219, -22630.113080753457, -41349.69906207312, -24142.946200722006, -0.39, -0.09, 0.92, 192.0, 0.0, 0.0, 0.0, 0.0, 0.0, 0.0, 0.0, 0.0, 0.0, 1.6981679677400324E9, 0.0, 2023-10-24 14:19:27.740
28.0, -50480.99016916635, -57994.976102706925, -54847.22463455494, -65955.79575965354, -40537.95075868974, -26739.63776107285, -39716.45709472383, -22587.533007566097, -0.39, -0.092, 0.916, 192.0, 243.0, 208.0, 253.0, 32.0, 28.0, 160.0, 0.0, 0.0, 0.0, 1.6981679677440643E9, 0.0, 2023-10-24 14:19:27.744
29.0, -50762.577445814306, -54597.55564898916, -53380.45845990878, -65866.20996787667, -40224.13226653722, -23190.717183437013, -40626.55307371057, -23404.64572961876, -0.39, -0.092, 0.916, 192.0, 0.0, 0.0, 0.0, 0.0, 0.0, 0.0, 0.0, 0.0, 0.0, 1.6981679677491603E9, 0.0, 2023-10-24 14:19:27.749
30.0, -50064.57716996398, -49732.1396746802, -51835.50588315796, -65312.512554229805, -40436.339728395906, -18597.456049615867, -42389.21164145609, -25073.471674140892, -0.39, -0.092, 0.916, 192.0, 0.0, 0.0, 0.0, 0.0, 0.0, 0.0, 0.0, 0.0, 0.0, 1.6981679677530599E9, 0.0, 2023-10-24 14:19:27.753
31.0, -49644.63259513767, -52471.27890244471, -53082.35324410835, -65294.8099726212, -40771.86176441453, -21535.16817512133, -41710.724438515244, -24471.673306426204, -0.39, -0.092, 0.916, 192.0, 0.0, 0.0, 0.0, 0.0, 0.0, 0.0, 0.0, 0.0, 0.0, 1.698167967756044E9, 0.0, 2023-10-24 14:19:27.756
32.0, -50314.98376309678, -57745.552986330156, -54791.032348994304, -65871.97671794615, -40584.062407501035, -26532.2135725276, -39840.509276450786, -22695.603692007506, -0.39, -0.092, 0.916, 192.0, 0.0, 0.0, 0.0, 0.0, 0.0, 0.0, 0.0, 0.0, 0.0, 1.698167967760064E9, 0.0, 2023-10-24 14:19:27.760
33.0, -50784.90683852516, -55578.52900964368, -53720.49554830737, -65927.87843082886, -40210.20712974157, -24141.448633843498, -40296.35075287232, -23078.690240227013, -0.39, -0.092, 0.916, 192.0, 0.0, 0.0, 0.0, 0.0, 0.0, 0.0, 0.0, 0.0, 0.0, 1.6981679677640445E9, 0.0, 2023-10-24 14:19:27.764
34.0, -50195.11135758297, -50173.452517205784, -51922.25300338901, -65384.35106090916, -40330.61597712231, -18967.265661628924, -42164.59896142471, -24837.839584093046, -0.39, -0.092, 0.916, 192.0, 0.0, 0.0, 0.0, 0.0, 0.0, 0.0, 0.0, 0.0, 0.0, 1.6981679677681036E9, 0.0, 2023-10-24 14:19:27.768
35.0, -49622.45966463801, -51440.30468944368, -52711.358989639164, -65226.950076454894, -40720.85508356751, -20511.882962212916, -42023.71591612291, -24751.18187083982, -0.39, -0.092, 0.916, 192.0, 0.0, 0.0, 0.0, 0.0, 0.0, 0.0, 0.0, 0.0, 0.0, 1.6981679677720373E9, 0.0, 2023-10-24 14:19:27.772
36.0, -50166.456421191266, -57204.26079085598, -54704.15111829652, -65783.91084479223, -40658.314902581566, -26079.81426475218, -40084.94795381403, -22931.280485544263, -0.39, -0.092, 0.916, 192.0, 0.0, 0.0, 0.0, 0.0, 0.0, 0.0, 0.0, 0.0, 0.0, 1.6981679677770975E9, 0.0, 2023-10-24 14:19:27.777
37.0, -50799.77074858794, -56503.95828532676, -54104.05148316044, -65975.33118430748, -40252.697795951106, -25070.923575272987, -40029.761496753876, -22846.455615336374, -0.39, -0.092, 0.916, 192.0, 0.0, 0.0, 0.0, 0.0, 0.0, 0.0, 0.0, 0.0, 0.0, 1.698167967780123E9, 0.0, 2023-10-24 14:19:27.780
38.0, -50378.35095862758, -50935.33407870938, -52190.49628859715, -65478.45190506601, -40284.81725273338, -19671.32326022664, -41886.476205167324, -24590.91986309527, -0.382, -0.096, 0.926, 192.0, 244.0, 16.0, 253.0, 0.0, 28.0, 240.0, 0.0, 0.0, 0.0, 1.698167967783073E9, 0.0, 2023-10-24 14:19:27.783
39.0, -49651.0698975408, -50585.708091939465, -52382.74364265724, -65176.815113641635, -40675.34693185651, -19638.55560285516, -42276.46944242352, -24989.60792894458, -0.382, -0.096, 0.926, 192.0, 0.0, 0.0, 0.0, 0.0, 0.0, 0.0, 0.0, 0.0, 0.0, 1.698167967788102E9, 0.0, 2023-10-24 14:19:27.788
40.0, -49970.69984325169, -56380.44254546673, -54424.843719583005, -65646.11234022527, -40696.02229547767, -25289.27776685688, -40373.75484392105, -23210.476125535504, -0.382, -0.096, 0.926, 192.0, 0.0, 0.0, 0.0, 0.0, 0.0, 0.0, 0.0, 0.0, 0.0, 1.698167967792128E9, 0.0, 2023-10-24 14:19:27.792
41.0, -50687.54263967784, -57183.27250281245, -54355.88858793838, -65968.2680330596, -40271.51796478248, -25733.585743139476, -39800.00791549777, -22629.487231908708, -0.382, -0.096, 0.926, 192.0, 0.0, 0.0, 0.0, 0.0, 0.0, 0.0, 0.0, 0.0, 0.0, 1.698167967796114E9, 0.0, 2023-10-24 14:19:27.796
42.0, -50458.07963109966, -51812.84121428028, -52437.460713083834, -65564.7743421524, -40208.374286696235, -20439.820938089008, -41529.027107838054, -24242.344408314755, -0.382, -0.096, 0.926, 192.0, 0.0, 0.0, 0.0, 0.0, 0.0, 0.0, 0.0, 0.0, 0.0, 1.6981679678001175E9, 0.0, 2023-10-24 14:19:27.800
43.0, -49717.78985473989, -49972.77855548603, -52144.49639850812, -65176.94922410837, -40623.08855332, -18930.94407688905, -42446.789735172955, -25140.43750052899, -0.382, -0.096, 0.926, 192.0, 0.0, 0.0, 0.0, 0.0, 0.0, 0.0, 0.0, 0.0, 0.0, 1.6981679678064244E9, 0.0, 2023-10-24 14:19:27.806
44.0, -49884.33270267638, -55415.473033842216, -54173.11837352734, -65573.33506027878, -40774.54397374916, -24328.555086678876, -40771.615895225514, -23580.28573754856, -0.382, -0.096, 0.926, 192.0, 0.0, 0.0, 0.0, 0.0, 0.0, 0.0, 0.0, 0.0, 0.0, 1.6981679678091116E9, 0.0, 2023-10-24 14:19:27.809
45.0, -50689.71075889001, -57749.66570730993, -54670.42233591346, -66045.22508921922, -40400.86750994534, -26324.297645604333, -39755.30442658716, -22589.85758898945, -0.382, -0.096, 0.926, 192.0, 0.0, 0.0, 0.0, 0.0, 0.0, 0.0, 0.0, 0.0, 0.0, 1.6981679678131275E9, 0.0, 2023-10-24 14:19:27.813
46.0, -50616.84407196571, -52855.41598265362, -52767.68538566654, -65708.76427993349, -40200.17119648113, -21449.985677002154, -41207.6760778041, -23936.93017207744, -0.382, -0.096, 0.926, 192.0, 0.0, 0.0, 0.0, 0.0, 0.0, 0.0, 0.0, 0.0, 0.0, 1.6981679678161309E9, 0.0, 2023-10-24 14:19:27.816
47.0, -49812.62830646376, -49576.57153327126, -51908.32786659335, -65191.45550625987, -40540.163581390814, -18514.866353853507, -42507.675887069214, -25191.555940098282, -0.382, -0.096, 0.926, 192.0, 0.0, 0.0, 0.0, 0.0, 0.0, 0.0, 0.0, 0.0, 0.0, 1.6981679678201458E9, 0.0, 2023-10-24 14:19:27.820
48.0, -49741.16977944014, -54254.83635125594, -53749.664574821545, -65433.18962254401, -40785.38456980998, -23237.74525377098, -41133.22241702347, -23927.184811494924, -0.386, -0.09, 0.93, 192.0, 243.0, 240.0, 253.0, 48.0, 29.0, 16.0, 0.0, 0.0, 0.0, 1.698167967824172E9, 0.0, 2023-10-24 14:19:27.824
49.0, -50548.648899632564, -57986.303625858265, -54794.20629670695, -65980.60619599893, -40476.77403411556, -26616.636111335294, -39695.021771791195, -22551.926678648793, -0.386, -0.09, 0.93, 192.0, 0.0, 0.0, 0.0, 0.0, 0.0, 0.0, 0.0, 0.0, 0.0, 1.6981679678281069E9, 0.0, 2023-10-24 14:19:27.828
50.0, -50725.9205849076, -53956.4852662665, -53170.86615215137, -65824.07692957843, -40233.34118525281, -22516.633274153864, -40860.32996896863, -23620.116546167916, -0.386, -0.09, 0.93, 192.0, 0.0, 0.0, 0.0, 0.0, 0.0, 0.0, 0.0, 0.0, 0.0, 1.698167967833218E9, 0.0, 2023-10-24 14:19:27.833
51.0, -49979.64054103381, -49584.64051301963, -51857.7905723799, -65271.18417873194, -40499.259889037596, -18465.5584055851, -42479.512689055526, -25161.001105427877, -0.386, -0.09, 0.93, 192.0, 0.0, 0.0, 0.0, 0.0, 0.0, 0.0, 0.0, 0.0, 0.0, 1.6981679678361816E9, 0.0, 2023-10-24 14:19:27.836
52.0, -49684.508107245936, -53151.48718970862, -53367.94148301381, -65357.484264073886, -40812.36312536754, -22186.609767271253, -41524.199131035704, -24298.00025200847, -0.386, -0.09, 0.93, 192.0, 0.0, 0.0, 0.0, 0.0, 0.0, 0.0, 0.0, 0.0, 0.0, 1.6981679678392036E9, 0.0, 2023-10-24 14:19:27.839
53.0, -50431.86103485359, -57953.49126499787, -54878.38296632564, -65948.93377410577, -40591.10320700445, -26691.067420371466, -39795.40345613998, -22654.878813609936, -0.386, -0.09, 0.93, 192.0, 0.0, 0.0, 0.0, 0.0, 0.0, 0.0, 0.0, 0.0, 0.0, 1.6981679678441591E9, 0.0, 2023-10-24 14:19:27.844
54.0, -50798.519050898445, -55015.19799413657, -53547.71656366785, -65911.89693354332, -40254.82121167436, -23569.176920554273, -40525.344374816945, -23306.43216448214, -0.386, -0.09, 0.93, 192.0, 0.0, 0.0, 0.0, 0.0, 0.0, 0.0, 0.0, 0.0, 0.0, 1.6981679678481739E9, 0.0, 2023-10-24 14:19:27.848
55.0, -50145.9375197813, -49895.553278392945, -51918.542613809426, -65361.820502498216, -40439.826600530934, -18721.32941738718, -42339.03197515392, -25018.888714181034, -0.386, -0.09, 0.93, 192.0, 0.0, 0.0, 0.0, 0.0, 0.0, 0.0, 0.0, 0.0, 0.0, 1.698167967852194E9, 0.0, 2023-10-24 14:19:27.852
56.0, -49649.46057194001, -52062.823124268434, -53008.547783916925, -65283.03060329326, -40801.81310198463, -21144.95142042058, -41868.639513091985, -24617.33962504144, -0.386, -0.09, 0.93, 192.0, 0.0, 0.0, 0.0, 0.0, 0.0, 0.0, 0.0, 0.0, 0.0, 1.6981679678563366E9, 0.0, 2023-10-24 14:19:27.856
57.0, -50272.023710253685, -57599.149060147894, -54826.57162267824, -65868.93688070022, -40675.34693185651, -26417.862047894247, -39974.57503969372, -22827.680149993917, -0.386, -0.09, 0.93, 192.0, 0.0, 0.0, 0.0, 0.0, 0.0, 0.0, 0.0, 0.0, 0.0, 1.6981679678602076E9, 0.0, 2023-10-24 14:19:27.860
58.0, -50806.94565855809, -55984.257874996416, -53904.89744006365, -65980.65089948784, -40288.95232545761, -24537.365083380355, -40239.554970211386, -23031.885687337603, -0.384, -0.092, 0.922, 192.0, 244.0, 0.0, 253.0, 32.0, 28.0, 208.0, 0.0, 0.0, 0.0, 1.6981679678641837E9, 0.0, 2023-10-24 14:19:27.864
59.0, -50295.49304193175, -50476.720985975386, -52036.85039721136, -65456.882471666635, -40385.020123126524, -19237.766473027048, -42121.48244637042, -24799.841618519025, -0.384, -0.092, 0.922, 192.0, 0.0, 0.0, 0.0, 0.0, 0.0, 0.0, 0.0, 0.0, 0.0, 1.6981679678671987E9, 0.0, 2023-10-24 14:19:27.867
60.0, -49688.285552058886, -51140.366630597906, -52630.0209915663, -65250.508815110785, -40793.855880958545, -20200.23258927257, -42192.02455187137, -24908.58285529409, -0.384, -0.092, 0.922, 192.0, 0.0, 0.0, 0.0, 0.0, 0.0, 0.0, 0.0, 0.0, 0.0, 1.6981679678722064E9, 0.0, 2023-10-24 14:19:27.872
61.0, -50140.796618556575, -56966.48293334043, -54701.78183338426, -65779.95458602364, -40765.98325562278, -25872.278317484655, -40254.28476980743, -23102.42779283855, -0.384, -0.092, 0.922, 192.0, 0.0, 0.0, 0.0, 0.0, 0.0, 0.0, 0.0, 0.0, 0.0, 1.6981679678762956E9, 0.0, 2023-10-24 14:19:27.876
62.0, -50794.22751596302, -56833.53475732026, -54276.94222652224, -66028.10365296646, -40353.05712855543, -25416.5485997854, -40004.57108075274, -22827.52368778273, -0.384, -0.092, 0.922, 192.0, 0.0, 0.0, 0.0, 0.0, 0.0, 0.0, 0.0, 0.0, 0.0, 1.6981679678802397E9, 0.0, 2023-10-24 14:19:27.880
63.0, -50438.901834357006, -51302.21561219879, -52292.15202237988, -65558.94053684956, -40338.21557023711, -20011.069775947308, -41811.93313740887, -24516.22033312563, -0.384, -0.092, 0.922, 192.0, 0.0, 0.0, 0.0, 0.0, 0.0, 0.0, 0.0, 0.0, 0.0, 1.698167967884189E9, 0.0, 2023-10-24 14:19:27.884
64.0, -49700.46725278703, -50346.45501928986, -52307.7982434986, -65206.45352678937, -40731.18158950587, -19389.73598357868, -42396.27479270397, -25100.092601787164, -0.384, -0.092, 0.922, 192.0, 0.0, 0.0, 0.0, 0.0, 0.0, 0.0, 0.0, 0.0, 0.0, 1.698167967888227E9, 0.0, 2023-10-24 14:19:27.888
65.0, -49977.427718332736, -56059.33738462179, -54372.42887883531, -65657.4446746641, -40800.49434906177, -25009.255112320796, -40571.85835502844, -23392.374621912793, -0.384, -0.092, 0.922, 192.0, 0.0, 0.0, 0.0, 0.0, 0.0, 0.0, 0.0, 0.0, 0.0, 1.6981679678922303E9, 0.0, 2023-10-24 14:19:27.892
66.0, -50777.24019017699, -57505.98698925817, -54563.71510788383, -66066.88392959641, -40418.41362934275, -26102.233064440858, -39840.866904362076, -22666.457017237786, -0.384, -0.092, 0.922, 192.0, 0.0, 0.0, 0.0, 0.0, 0.0, 0.0, 0.0, 0.0, 0.0, 1.6981679678952413E9, 0.0, 2023-10-24 14:19:27.895
67.0, -50601.510775269366, -52296.06357765956, -52644.97430860691, -65688.24537852351, -40307.88425301126, -20944.61273486766, -41476.5899153459, -24189.817808844782, -0.384, -0.092, 0.922, 192.0, 0.0, 0.0, 0.0, 0.0, 0.0, 0.0, 0.0, 0.0, 0.0, 1.6981679679002128E9, 0.0, 2023-10-24 14:19:27.900
68.0, -49785.26977125046, -49835.29297534144, -52075.69772907469, -65225.72073050985, -40668.61905677546, -18842.654686290585, -42530.5864251359, -25213.483001408935, -0.384, -0.092, 0.922, 192.0, 0.0, 0.0, 0.0, 0.0, 0.0, 0.0, 0.0, 0.0, 0.0, 1.698167967904264E9, 0.0, 2023-10-24 14:19:27.904
69.0, -49856.840056996356, -55018.170776149134, -54063.10308731831, -65566.71894392002, -40851.32221595314, -24038.76471981582, -40964.06441498571, -23763.860614759997, -0.382, -0.096, 0.926, 192.0, 244.0, 16.0, 253.0, 0.0, 28.0, 240.0, 0.0, 0.0, 0.0, 1.698167967908281E9, 0.0, 2023-10-24 14:19:27.908
70.0, -50673.95277904902, -57917.66141863602, -54756.05186892174, -66056.55742365807, -40479.81387136148, -26572.558471269425, -39760.042996411685, -22595.04319370308, -0.382, -0.096, 0.926, 192.0, 0.0, 0.0, 0.0, 0.0, 0.0, 0.0, 0.0, 0.0, 0.0, 1.6981679679123075E9, 0.0, 2023-10-24 14:19:27.912
71.0, -50698.539697949855, -53346.19323565879, -52978.417632391174, -65790.75047859555, -40276.01066541799, -21960.521872105823, -41115.0057452924, -23847.031455878194, -0.382, -0.096, 0.926, 192.0, 0.0, 0.0, 0.0, 0.0, 0.0, 0.0, 0.0, 0.0, 0.0, 1.6981679679152489E9, 0.0, 2023-10-24 14:19:27.915
72.0, -49919.15672053775, -49618.10107446922, -51959.11102999581, -65266.89264379653, -40591.192613982275, -18570.410438824947, -42561.923570862244, -25231.789080117833, -0.382, -0.096, 0.926, 192.0, 0.0, 0.0, 0.0, 0.0, 0.0, 0.0, 0.0, 0.0, 0.0, 1.6981679679193015E9, 0.0, 2023-10-24 14:19:27.919
73.0, -49791.50590795349, -53902.52815515139, -53668.68420465997, -65462.760980458384, -40857.401890444984, -22945.25032582883, -41347.955626005605, -24120.125069633137, -0.382, -0.096, 0.926, 192.0, 0.0, 0.0, 0.0, 0.0, 0.0, 0.0, 0.0, 0.0, 0.0, 1.6981679679233463E9, 0.0, 2023-10-24 14:19:27.923
74.0, -50603.030693892324, -58100.5657435138, -54891.30227462081, -66038.76543507165, -40573.13240446239, -26788.36456398542, -39786.97684848033, -22625.262752206654, -0.382, -0.096, 0.926, 192.0, 0.0, 0.0, 0.0, 0.0, 0.0, 0.0, 0.0, 0.0, 0.0, 1.6981679679282675E9, 0.0, 2023-10-24 14:19:27.928
75.0, -50840.54033047442, -54460.58415896704, -53390.829669336046, -65922.60341913742, -40291.902755725714, -23037.406568218063, -40795.26404085923, -23542.824213841464, -0.382, -0.096, 0.926, 192.0, 0.0, 0.0, 0.0, 0.0, 0.0, 0.0, 0.0, 0.0, 0.0, 1.6981679679323084E9, 0.0, 2023-10-24 14:19:27.932
76.0, -50103.69272276077, -49753.932625524125, -51903.768110724464, -65355.40555183954, -40513.3638397889, -18623.00409352828, -42502.93731724469, -25164.085646162708, -0.382, -0.096, 0.926, 192.0, 0.0, 0.0, 0.0, 0.0, 0.0, 0.0, 0.0, 0.0, 0.0, 1.6981679679364183E9, 0.0, 2023-10-24 14:19:27.936
77.0, -49686.519764246914, -52747.367649956665, -53231.39467613634, -65356.41138034003, -40816.60995681405, -21841.52118462577, -41708.86924372545, -24452.45080619464, -0.382, -0.096, 0.926, 192.0, 0.0, 0.0, 0.0, 0.0, 0.0, 0.0, 0.0, 0.0, 0.0, 1.6981679679402847E9, 0.0, 2023-10-24 14:19:27.940
78.0, -50393.43838613491, -57842.04546714371, -54854.26543405836, -65945.51395720411, -40620.11577130744, -26676.158806819774, -39897.14859690054, -22736.708550060815, -0.382, -0.096, 0.926, 192.0, 0.0, 0.0, 0.0, 0.0, 0.0, 0.0, 0.0, 0.0, 0.0, 1.698167967943318E9, 0.0, 2023-10-24 14:19:27.943
79.0, -50816.22163250705, -55397.837507466975, -53688.04081535826, -65954.65582068633, -40260.63266523274, -24004.588902543655, -40444.34165291091, -23218.925084939612, -0.38, -0.094, 0.926, 192.0, 244.0, 32.0, 253.0, 16.0, 28.0, 240.0, 0.0, 0.0, 0.0, 1.6981679679473293E9, 0.0, 2023-10-24 14:19:27.947
80.0, -50217.93248867184, -50112.65577228735, -51965.57068414339, -65413.47538393443, -40417.43015258672, -18942.90226017264, -42306.53253871591, -24979.616699173057, -0.38, -0.094, 0.926, 192.0, 0.0, 0.0, 0.0, 0.0, 0.0, 0.0, 0.0, 0.0, 0.0, 1.698167967951331E9, 0.0, 2023-10-24 14:19:27.951
81.0, -49703.46238654404, -51735.772399398375, -52894.0845005613, -65307.23754253836, -40820.901491749464, -20831.02116954579, -42059.635169462585, -24790.342127125517, -0.38, -0.094, 0.926, 192.0, 0.0, 0.0, 0.0, 0.0, 0.0, 0.0, 0.0, 0.0, 0.0, 1.6981679679554155E9, 0.0, 2023-10-24 14:19:27.955
82.0, -50266.368718906495, -57408.68984564422, -54776.99545347637, -65865.20413937619, -40717.323507943576, -26280.510578216385, -40118.184997819066, -22961.29887834774, -0.38, -0.094, 0.926, 192.0, 0.0, 0.0, 0.0, 0.0, 0.0, 0.0, 0.0, 0.0, 0.0, 1.698167967961308E9, 0.0, 2023-10-24 14:19:27.961
83.0, -50798.3402369428, -56331.71574255416, -54073.58605546785, -66011.49630683617, -40301.69281979714, -24954.158062238464, -40169.52695483291, -22979.627308801093, -0.38, -0.094, 0.926, 192.0, 0.0, 0.0, 0.0, 0.0, 0.0, 0.0, 0.0, 0.0, 0.0, 1.698167967964318E9, 0.0, 2023-10-24 14:19:27.964
84.0, -50334.20626332835, -50769.59589357328, -52122.41287498628, -65500.87070475468, -40340.718965616106, -19553.417808224895, -42027.09102953566, -24721.834030370002, -0.38, -0.094, 0.926, 192.0, 0.0, 0.0, 0.0, 0.0, 0.0, 0.0, 0.0, 0.0, 0.0, 1.6981679679684155E9, 0.0, 2023-10-24 14:19:27.968
85.0, -49663.2739500134, -50808.39852194769, -52471.21184721134, -65224.916067709455, -40743.810325123115, -19879.93209122802, -42293.99321007648, -25009.94801639891, -0.38, -0.094, 0.926, 192.0, 0.0, 0.0, 0.0, 0.0, 0.0, 0.0, 0.0, 0.0, 0.0, 1.6981679679713404E9, 0.0, 2023-10-24 14:19:27.971
86.0, -50080.603370738434, -56663.59444422656, -54546.50426465324, -65744.21414663961, -40771.86176441453, -25589.998136758582, -40401.3368965789, -23241.053311950363, -0.38, -0.094, 0.926, 192.0, 0.0, 0.0, 0.0, 0.0, 0.0, 0.0, 0.0, 0.0, 0.0, 1.6981679679754395E9, 0.0, 2023-10-24 14:19:27.975
87.0, -50812.60064990529, -57141.18416800311, -54389.0362249656, -66069.27556625314, -40370.13386131929, -25746.929734579295, -39972.65278967057, -22796.141838567477, -0.38, -0.094, 0.926, 192.0, 0.0, 0.0, 0.0, 0.0, 0.0, 0.0, 0.0, 0.0, 0.0, 1.6981679679794405E9, 0.0, 2023-10-24 14:19:27.979
88.0, -50499.38565485307, -51667.59957880969, -52414.885451183975, -65611.78006074192, -40295.30022088292, -20382.75693449461, -41704.421246578844, -24411.92709349717, -0.38, -0.094, 0.926, 192.0, 0.0, 0.0, 0.0, 0.0, 0.0, 0.0, 0.0, 0.0, 0.0, 1.6981679679854543E9, 0.0, 2023-10-24 14:19:27.985
89.0, -49737.437038116106, -50129.17371143982, -52208.89177428386, -65222.65854151947, -40684.444091849815, -19186.782143924494, -42485.681770525196, -25182.7940562718, -0.382, -0.088, 0.924, 192.0, 244.0, 16.0, 253.0, 64.0, 28.0, 224.0, 0.0, 0.0, 0.0, 1.698167967988412E9, 0.0, 2023-10-24 14:19:27.988
90.0, -49981.85336373489, -55716.57338339966, -54281.45727890221, -65673.04619229391, -40835.944215767886, -24720.18000128031, -40784.758720965234, -23597.563636012514, -0.382, -0.088, 0.924, 192.0, 0.0, 0.0, 0.0, 0.0, 0.0, 0.0, 0.0, 0.0, 0.0, 1.6981679679925177E9, 0.0, 2023-10-24 14:19:27.992
91.0, -50796.14976598618, -57736.880509481496, -54715.8634323911, -66115.81189820908, -40460.77018508556, -26388.000117301955, -39859.19533481543, -22689.121686115468, -0.382, -0.088, 0.924, 192.0, 0.0, 0.0, 0.0, 0.0, 0.0, 0.0, 0.0, 0.0, 0.0, 1.6981679679954174E9, 0.0, 2023-10-24 14:19:27.995
92.0, -50678.713700618, -52713.61651582915, -52759.43759196253, -65754.9653357226, -40287.38770334575, -21375.107333076874, -41373.43661468466, -24092.364203019646, -0.382, -0.088, 0.924, 192.0, 0.0, 0.0, 0.0, 0.0, 0.0, 0.0, 0.0, 0.0, 0.0, 1.6981679679993799E9, 0.0, 2023-10-24 14:19:27.999
93.0, -49859.32110063089, -49722.662535031144, -51990.69404491116, -65251.358181400086, -40623.02149808664, -18729.95719074693, -42584.029446128545, -25261.7627694324, -0.382, -0.088, 0.924, 192.0, 0.0, 0.0, 0.0, 0.0, 0.0, 0.0, 0.0, 0.0, 0.0, 1.6981679680034373E9, 0.0, 2023-10-24 14:19:28.003
94.0, -49847.117048158296, -54599.544954245684, -53880.80225954083, -65524.898830044134, -40825.97533774082, -23628.029063705097, -41123.03002155185, -23912.387956665512, -0.382, -0.088, 0.924, 192.0, 0.0, 0.0, 0.0, 0.0, 0.0, 0.0, 0.0, 0.0, 0.0, 1.6981679680074115E9, 0.0, 2023-10-24 14:19:28.007
95.0, -50701.13250030667, -58073.609539700694, -54846.71054443247, -66095.76238343268, -40530.77584871958, -26746.477394876172, -39811.74258133681, -22651.123720541447, -0.382, -0.088, 0.924, 192.0, 0.0, 0.0, 0.0, 0.0, 0.0, 0.0, 0.0, 0.0, 0.0, 1.6981679680114121E9, 0.0, 2023-10-24 14:19:28.011
96.0, -50801.82710907783, -53789.40597646308, -53123.10047425038, -65857.20221486119, -40266.06413913538, -22399.800705885973, -41015.65224118856, -23752.17065240987, -0.382, -0.088, 0.924, 192.0, 0.0, 0.0, 0.0, 0.0, 0.0, 0.0, 0.0, 0.0, 0.0, 1.698167968016452E9, 0.0, 2023-10-24 14:19:28.016
97.0, -50011.6035356049, -49636.38480143366, -51934.47940760606, -65303.95183610343, -40550.53479081807, -18574.232587126804, -42574.239382057116, -25241.13210930015, -0.382, -0.088, 0.924, 192.0, 0.0, 0.0, 0.0, 0.0, 0.0, 0.0, 0.0, 0.0, 0.0, 1.6981679680204368E9, 0.0, 2023-10-24 14:19:28.020
98.0, -49770.60702688778, -53489.71378680632, -53498.07333923261, -65436.22945978993, -40858.18420150092, -22555.882937417384, -41527.68600317073, -24289.66305132664, -0.382, -0.088, 0.924, 192.0, 0.0, 0.0, 0.0, 0.0, 0.0, 0.0, 0.0, 0.0, 0.0, 1.698167968023394E9, 0.0, 2023-10-24 14:19:28.023
99.0, -50519.09989346265, -58062.657184917596, -54894.856201989205, -66002.75677475415, -40598.45693093025, -26816.30424455455, -39843.92909335245, -22687.132380858944, -0.392, -0.092, 0.922, 192.0, 243.0, 192.0, 253.0, 32.0, 28.0, 208.0, 0.0, 0.0, 0.0, 1.6981679680273852E9, 0.0, 2023-10-24 14:19:28.027
100.0, -50807.01271379146, -54842.44136124151, -53515.68651386339, -65914.28857020003, -40262.06317687788, -23444.67770393821, -40660.43831830482, -23425.96929382912, -0.392, -0.092, 0.922, 192.0, 0.0, 0.0, 0.0, 0.0, 0.0, 0.0, 0.0, 0.0, 0.0, 1.698167968031419E9, 0.0, 2023-10-24 14:19:28.031
101.0, -50133.82287428652, -49871.078118214384, -51958.08284975086, -65369.710668290936, -40483.30074349651, -18747.79388282226, -42456.222171333095, -25126.7805846668, -0.392, -0.092, 0.922, 192.0, 0.0, 0.0, 0.0, 0.0, 0.0, 0.0, 0.0, 0.0, 0.0, 1.698167968036541E9, 0.0, 2023-10-24 14:19:28.036
102.0, -49691.79477593837, -52385.04587233614, -53109.51061362155, -65346.6213162686, -40847.5894746291, -21464.179034731274, -41883.21285047685, -24617.004348874612, -0.392, -0.092, 0.922, 192.0, 0.0, 0.0, 0.0, 0.0, 0.0, 0.0, 0.0, 0.0, 0.0, 1.698167968043439E9, 0.0, 2023-10-24 14:19:28.043
103.0, -50355.88745545, -57777.02424252323, -54889.20121064201, -65932.12526227537, -40688.98149597424, -26596.340727369872, -40003.453493529974, -22839.034836177212, -0.392, -0.092, 0.922, 192.0, 0.0, 0.0, 0.0, 0.0, 0.0, 0.0, 0.0, 0.0, 0.0, 1.6981679680465407E9, 0.0, 2023-10-24 14:19:28.046
104.0, -50892.955171222115, -55908.64192350411, -53927.517405452425, -66029.9811995007, -40329.856017810824, -24444.828861335383, -40387.054131871955, -23160.363514466706, -0.392, -0.092, 0.922, 192.0, 0.0, 0.0, 0.0, 0.0, 0.0, 0.0, 0.0, 0.0, 0.0, 1.698167968050505E9, 0.0, 2023-10-24 14:19:28.050
105.0, -50367.84563873358, -50506.56056482322, -52177.73344251316, -65501.38479487715, -40464.63703687633, -19240.13575793931, -42265.96412252953, -24937.707178319357, -0.392, -0.092, 0.922, 192.0, 0.0, 0.0, 0.0, 0.0, 0.0, 0.0, 0.0, 0.0, 0.0, 1.6981679680534625E9, 0.0, 2023-10-24 14:19:28.053
106.0, -49709.76557848044, -51399.49040406828, -52762.052746063804, -65270.513626398286, -40809.12212242152, -20489.285348568603, -42173.24908652891, -24892.891930686466, -0.392, -0.092, 0.922, 192.0, 0.0, 0.0, 0.0, 0.0, 0.0, 0.0, 0.0, 0.0, 0.0, 1.6981679680564985E9, 0.0, 2023-10-24 14:19:28.056
107.0, -50209.97526764575, -57157.36683098875, -54692.72937687986, -65815.71737715213, -40742.58097917807, -26070.78415999224, -40233.6988131641, -23065.65917320957, -0.392, -0.092, 0.922, 192.0, 0.0, 0.0, 0.0, 0.0, 0.0, 0.0, 0.0, 0.0, 0.0, 1.6981679680604827E9, 0.0, 2023-10-24 14:19:28.060
108.0, -50865.03784239743, -56670.79170594117, -54181.09794629788, -66052.28824046711, -40336.65094812524, -25289.7695052349, -40108.43963723655, -22905.57597942066, -0.392, -0.092, 0.922, 192.0, 0.0, 0.0, 0.0, 0.0, 0.0, 0.0, 0.0, 0.0, 0.0, 1.698167968063475E9, 0.0, 2023-10-24 14:19:28.063
109.0, -50416.61714513507, -51081.96152233619, -52161.103744638414, -65548.30110648884, -40320.848264795335, -19845.97979140041, -41923.11071432957, -24600.218188788676, -0.392, -0.092, 0.922, 192.0, 0.0, 0.0, 0.0, 0.0, 0.0, 0.0, 0.0, 0.0, 0.0, 1.6981679680674849E9, 0.0, 2023-10-24 14:19:28.067
110.0, -49704.40115981116, -50506.82878575668, -52328.27244141966, -65227.10653866608, -40729.59461564954, -19588.375936552995, -42403.1591299962, -25090.48135167138, -0.394, -0.092, 0.92, 192.0, 243.0, 176.0, 253.0, 32.0, 28.0, 192.0, 0.0, 0.0, 0.0, 1.69816796807149E9, 0.0, 2023-10-24 14:19:28.071
111.0, -50041.9125010863, -56306.07829166392, -54467.20027532581, -65703.42221300867, -40788.15618612244, -25275.19616785004, -40551.004177451636, -23359.67401977468, -0.394, -0.092, 0.92, 192.0, 0.0, 0.0, 0.0, 0.0, 0.0, 0.0, 0.0, 0.0, 0.0, 1.6981679680754817E9, 0.0, 2023-10-24 14:19:28.075
112.0, -50827.08458031232, -57405.80647060949, -54524.666610320404, -66085.30176702759, -40395.34662906488, -26034.06024385217, -39925.13298095858, -22736.194459938342, -0.394, -0.092, 0.92, 192.0, 0.0, 0.0, 0.0, 0.0, 0.0, 0.0, 0.0, 0.0, 0.0, 1.698167968080548E9, 0.0, 2023-10-24 14:19:28.080
113.0, -50589.753757685874, -52067.76285979305, -52545.84432194762, -65656.751770586, -40282.85029922132, -20766.089351903123, -41575.78695723855, -24274.016830207926, -0.394, -0.092, 0.92, 192.0, 0.0, 0.0, 0.0, 0.0, 0.0, 0.0, 0.0, 0.0, 0.0, 1.698167968083557E9, 0.0, 2023-10-24 14:19:28.083
114.0, -49828.90037642722, -49977.2489043771, -52115.30502024949, -65236.82954750414, -40681.91834472637, -18987.493990360974, -42556.87207661535, -25224.792984103322, -0.394, -0.092, 0.92, 192.0, 0.0, 0.0, 0.0, 0.0, 0.0, 0.0, 0.0, 0.0, 0.0, 1.6981679680875213E9, 0.0, 2023-10-24 14:19:28.087
115.0, -49964.44135480421, -55358.16316105881, -54151.05720174995, -65619.82668874583, -40869.8965155955, -24332.62310416974, -40936.63882453905, -23723.336902062525, -0.394, -0.092, 0.92, 192.0, 0.0, 0.0, 0.0, 0.0, 0.0, 0.0, 0.0, 0.0, 0.0, 1.698167968091526E9, 0.0, 2023-10-24 14:19:28.091
116.0, -50744.8748642057, -57909.43597667647, -54742.84198794866, -66068.71677264175, -40474.67297013676, -26542.048340087935, -39806.89225279001, -22625.57567662903, -0.394, -0.092, 0.92, 192.0, 0.0, 0.0, 0.0, 0.0, 0.0, 0.0, 0.0, 0.0, 0.0, 1.6981679680955627E9, 0.0, 2023-10-24 14:19:28.095
117.0, -50731.530872765885, -53147.91091059577, -52939.23502436102, -65778.52407437851, -40278.759929985994, -21788.346384566594, -41234.297005450375, -23944.328599492146, -0.394, -0.092, 0.92, 192.0, 0.0, 0.0, 0.0, 0.0, 0.0, 0.0, 0.0, 0.0, 0.0, 1.6981679681005597E9, 0.0, 2023-10-24 14:19:28.100
118.0, -49947.90106390728, -49688.911400903635, -51987.0730623094, -65275.43101017845, -40611.71151539225, -18648.149806040503, -42611.25387087511, -25259.505243242413, -0.394, -0.092, 0.92, 192.0, 0.0, 0.0, 0.0, 0.0, 0.0, 0.0, 0.0, 0.0, 0.0, 1.6981679681035368E9, 0.0, 2023-10-24 14:19:28.103
119.0, -49818.97620188907, -54179.71213814165, -53743.40608637406, -65486.96791970348, -40847.07538450663, -23212.353672069752, -41286.82360492034, -24040.552859372245, -0.394, -0.092, 0.92, 192.0, 0.0, 0.0, 0.0, 0.0, 0.0, 0.0, 0.0, 0.0, 0.0, 1.698167968106513E9, 0.0, 2023-10-24 14:19:28.106
120.0, -50641.430990866545, -58099.73872896895, -54866.98357665343, -66046.25326946417, -40555.541581576064, -26801.30622402504, -39804.79118881121, -22628.034368519115, -0.388, -0.094, 0.916, 192.0, 243.0, 224.0, 253.0, 16.0, 28.0, 160.0, 0.0, 0.0, 0.0, 1.698167968111564E9, 0.0, 2023-10-24 14:19:28.111
121.0, -50835.980574605535, -54231.7022957447, -53299.232220558195, -65889.52283734355, -40289.68993302464, -22837.76078674326, -40893.58936471813, -23626.710310782233, -0.388, -0.094, 0.916, 192.0, 0.0, 0.0, 0.0, 0.0, 0.0, 0.0, 0.0, 0.0, 0.0, 1.698167968115576E9, 0.0, 2023-10-24 14:19:28.115
122.0, -50087.28654233057, -49718.37100009573, -51924.86815749027, -65328.78462419327, -40540.9682441912, -18617.63967485901, -42552.26761725755, -25202.55299837029, -0.388, -0.094, 0.916, 192.0, 0.0, 0.0, 0.0, 0.0, 0.0, 0.0, 0.0, 0.0, 0.0, 1.6981679681195984E9, 0.0, 2023-10-24 14:19:28.119
123.0, -49777.91604732467, -53083.96256970913, -53378.96089303028, -65410.97198855544, -40874.72449239784, -22140.274601015404, -41685.71283646976, -24416.755070299518, -0.388, -0.094, 0.916, 192.0, 0.0, 0.0, 0.0, 0.0, 0.0, 0.0, 0.0, 0.0, 0.0, 1.6981679681235862E9, 0.0, 2023-10-24 14:19:28.123
124.0, -50497.59751529664, -58020.971181508445, -54948.58979565976, -66001.25920787564, -40654.604513001985, -26784.765933128114, -39910.760809273816, -22729.913619746403, -0.388, -0.094, 0.916, 192.0, 0.0, 0.0, 0.0, 0.0, 0.0, 0.0, 0.0, 0.0, 0.0, 1.698167968127588E9, 0.0, 2023-10-24 14:19:28.127
125.0, -50881.93576120565, -55268.443258815205, -53698.23321082988, -65985.83650420148, -40302.09515119733, -23849.24427857927, -40566.2257154257, -23313.13768781873, -0.388, -0.094, 0.916, 192.0, 0.0, 0.0, 0.0, 0.0, 0.0, 0.0, 0.0, 0.0, 0.0, 1.6981679681316328E9, 0.0, 2023-10-24 14:19:28.131
126.0, -50223.4533695523, -50051.65786166881, -51992.10220481184, -65414.928247324024, -40463.02771127554, -18884.340689699733, -42386.73059782155, -25036.010150433798, -0.388, -0.094, 0.916, 192.0, 0.0, 0.0, 0.0, 0.0, 0.0, 0.0, 0.0, 0.0, 0.0, 1.6981679681346219E9, 0.0, 2023-10-24 14:19:28.134
127.0, -49712.22427037052, -51993.97975134609, -52957.161123414175, -65306.38817624906, -40838.44761114688, -21063.188739203066, -41999.799549555726, -24714.74852737767, -0.388, -0.094, 0.916, 192.0, 0.0, 0.0, 0.0, 0.0, 0.0, 0.0, 0.0, 0.0, 0.0, 1.6981679681386063E9, 0.0, 2023-10-24 14:19:28.138
128.0, -50332.082847605096, -57592.77881297813, -54826.07988430022, -65881.40915410628, -40723.9619760468, -26422.64532120768, -40080.05292177831, -22904.77131662027, -0.388, -0.094, 0.916, 192.0, 0.0, 0.0, 0.0, 0.0, 0.0, 0.0, 0.0, 0.0, 0.0, 1.6981679681435857E9, 0.0, 2023-10-24 14:19:28.143
129.0, -50923.66646810371, -56233.189252995166, -54039.566700406875, -66043.48165315171, -40352.945369833156, -24801.205074930796, -40278.268191607975, -23051.599925947183, -0.388, -0.094, 0.916, 192.0, 0.0, 0.0, 0.0, 0.0, 0.0, 0.0, 0.0, 0.0, 0.0, 1.698167968147638E9, 0.0, 2023-10-24 14:19:28.147
130.0, -50420.7522178593, -50695.32104674829, -52141.523616495564, -65525.56938237779, -40416.13375140831, -19452.633792475914, -42145.264702470864, -24800.512170852682, -0.388, -0.098, 0.918, 192.0, 243.0, 224.0, 252.0, 240.0, 28.0, 176.0, 0.0, 0.0, 0.0, 1.6981679681516645E9, 0.0, 2023-10-24 14:19:28.151
131.0, -49768.327148953336, -51079.34636823492, -52587.776194545775, -65286.517475428285, -40804.16003515244, -20119.185163877628, -42294.887279854694, -24974.900481092987, -0.388, -0.098, 0.918, 192.0, 0.0, 0.0, 0.0, 0.0, 0.0, 0.0, 0.0, 0.0, 0.0, 1.6981679681556137E9, 0.0, 2023-10-24 14:19:28.155
132.0, -50227.61079402099, -56934.56464225825, -54659.872312530555, -65812.87870560632, -40806.75283750926, -25811.369813843947, -40367.2281345401, -23175.138017551664, -0.388, -0.098, 0.918, 192.0, 0.0, 0.0, 0.0, 0.0, 0.0, 0.0, 0.0, 0.0, 0.0, 1.6981679681596184E9, 0.0, 2023-10-24 14:19:28.159
133.0, -50905.06981671689, -57052.33598379326, -54379.693195783286, -66087.55929321758, -40400.9345651787, -25624.799802875496, -40036.08704043472, -22828.797737216682, -0.388, -0.098, 0.918, 192.0, 0.0, 0.0, 0.0, 0.0, 0.0, 0.0, 0.0, 0.0, 0.0, 1.698167968162683E9, 0.0, 2023-10-24 14:19:28.162
134.0, -50562.6857951505, -51533.42205684448, -52424.809625722126, -65623.6935405366, -40368.34572176287, -20240.10810138084, -41820.13622762397, -24497.780143950004, -0.388, -0.098, 0.918, 192.0, 0.0, 0.0, 0.0, 0.0, 0.0, 0.0, 0.0, 0.0, 0.0, 1.698167968166648E9, 0.0, 2023-10-24 14:19:28.166
135.0, -49805.96748661608, -50317.598917198055, -52362.939997069836, -65255.49325412432, -40763.41280501042, -19384.259806187132, -42494.44365435167, -25166.432579330514, -0.388, -0.098, 0.918, 192.0, 0.0, 0.0, 0.0, 0.0, 0.0, 0.0, 0.0, 0.0, 0.0, 1.698167968171733E9, 0.0, 2023-10-24 14:19:28.171
136.0, -50050.62968142387, -55980.949816817025, -54355.642718749375, -65705.03153860946, -40858.586532901114, -24941.12699522102, -40714.931871286855, -23493.963300462165, -0.388, -0.098, 0.918, 192.0, 0.0, 0.0, 0.0, 0.0, 0.0, 0.0, 0.0, 0.0, 0.0, 1.6981679681756227E9, 0.0, 2023-10-24 14:19:28.175
137.0, -50851.0009468795, -57664.237340001746, -54617.448701554385, -66122.96445643478, -40469.46501367867, -26277.873072370658, -39902.311849869715, -22698.21884610878, -0.388, -0.098, 0.918, 192.0, 0.0, 0.0, 0.0, 0.0, 0.0, 0.0, 0.0, 0.0, 0.0, 1.6981679681796813E9, 0.0, 2023-10-24 14:19:28.179
138.0, -50698.60675318322, -52527.985278127824, -52688.157878894555, -65742.44835882763, -40327.486732898564, -21161.80463573988, -41477.97572350213, -24160.64878233061, -0.388, -0.098, 0.918, 192.0, 0.0, 0.0, 0.0, 0.0, 0.0, 0.0, 0.0, 0.0, 0.0, 1.6981679681837268E9, 0.0, 2023-10-24 14:19:28.183
139.0, -49902.01293254053, -49866.563065834416, -52089.935790292715, -65261.21530070488, -40695.91053675539, -18832.05995941877, -42603.14018763783, -25255.437225751546, -0.388, -0.098, 0.918, 192.0, 0.0, 0.0, 0.0, 0.0, 0.0, 0.0, 0.0, 0.0, 0.0, 1.6981679681876929E9, 0.0, 2023-10-24 14:19:28.187
140.0, -49935.339383523395, -54932.384780929664, -54023.54049963242, -65578.83358941479, -40901.5018822553, -23926.223686483347, -41089.25653567988, -23857.380313561003, -0.388, -0.098, 0.918, 192.0, 0.0, 0.0, 0.0, 0.0, 0.0, 0.0, 0.0, 0.0, 0.0, 1.6981679681907387E9, 0.0, 2023-10-24 14:19:28.190
141.0, -50773.261579663944, -58058.36564998217, -54842.37430600814, -66113.5096685302, -40567.47741311519, -26712.882722959846, -39847.17009629847, -22657.605726433485, -0.39, -0.092, 0.926, 192.0, 243.0, 208.0, 253.0, 32.0, 28.0, 240.0, 0.0, 0.0, 0.0, 1.698167968194749E9, 0.0, 2023-10-24 14:19:28.194
142.0, -50860.4557347841, -53626.59586985062, -53100.50286060606, -65871.12735165685, -40339.40021269324, -22220.517363609953, -41145.73939391845, -23853.75933095924, -0.39, -0.092, 0.926, 192.0, 0.0, 0.0, 0.0, 0.0, 0.0, 0.0, 0.0, 0.0, 0.0, 1.6981679681996772E9, 0.0, 2023-10-24 14:19:28.199
143.0, -50105.10088266145, -49751.205712700576, -52013.87280391131, -65344.63201101208, -40658.00197815919, -18649.55796594119, -42643.48508637966, -25288.316641845304, -0.39, -0.092, 0.926, 192.0, 0.0, 0.0, 0.0, 0.0, 0.0, 0.0, 0.0, 0.0, 0.0, 1.6981679682036743E9, 0.0, 2023-10-24 14:19:28.203
144.0, -49855.83422849586, -53815.02107560886, -53655.921358575986, -65479.52478879986, -40918.019821407775, -22837.47021406534, -41464.81054601795, -24209.73321315446, -0.39, -0.092, 0.926, 192.0, 0.0, 0.0, 0.0, 0.0, 0.0, 0.0, 0.0, 0.0, 0.0, 1.698167968207702E9, 0.0, 2023-10-24 14:19:28.207
145.0, -50602.31543806976, -58125.622049048194, -54968.326386013796, -66049.56132764356, -40655.85621069148, -26875.51401561666, -39868.113680853094, -22690.842770438525, -0.39, -0.092, 0.926, 192.0, 0.0, 0.0, 0.0, 0.0, 0.0, 0.0, 0.0, 0.0, 0.0, 1.698167968210676E9, 0.0, 2023-10-24 14:19:28.210
146.0, -50824.58118493333, -54614.83354745311, -53408.9569340893, -65930.7618058636, -40334.147552746246, -23249.099939954274, -40795.15228213695, -23528.630856112344, -0.39, -0.092, 0.926, 192.0, 0.0, 0.0, 0.0, 0.0, 0.0, 0.0, 0.0, 0.0, 0.0, 1.6981679682146735E9, 0.0, 2023-10-24 14:19:28.214
147.0, -50104.40797858334, -49765.68964310762, -51893.75452920849, -65352.18690063798, -40532.184008620265, -18681.45390527891, -42517.64476509628, -25157.380122826115, -0.39, -0.092, 0.926, 192.0, 0.0, 0.0, 0.0, 0.0, 0.0, 0.0, 0.0, 0.0, 0.0, 1.69816796821878E9, 0.0, 2023-10-24 14:19:28.218
148.0, -49706.50222378996, -52593.25237193732, -53178.13046909934, -65342.06156039972, -40870.65647490698, -21695.988976477263, -41812.290765320155, -24526.77035650854, -0.39, -0.092, 0.926, 192.0, 0.0, 0.0, 0.0, 0.0, 0.0, 0.0, 0.0, 0.0, 0.0, 1.698167968222839E9, 0.0, 2023-10-24 14:19:28.222
149.0, -50417.086531768626, -57864.240749387835, -54904.3109898938, -65945.67041941528, -40710.930909029354, -26687.289975558517, -39987.42729275552, -22800.098097336067, -0.39, -0.092, 0.926, 192.0, 0.0, 0.0, 0.0, 0.0, 0.0, 0.0, 0.0, 0.0, 0.0, 1.6981679682276833E9, 0.0, 2023-10-24 14:19:28.227
150.0, -50898.207831169115, -55637.89524291697, -53849.10748590321, -66001.70624276475, -40354.91232334523, -24244.356065315733, -40474.091824780924, -23227.195230388075, -0.39, -0.092, 0.926, 192.0, 0.0, 0.0, 0.0, 0.0, 0.0, 0.0, 0.0, 0.0, 0.0, 1.6981679682316964E9, 0.0, 2023-10-24 14:19:28.231
151.0, -50321.868100389016, -50266.25696018422, -51994.873821124296, -65455.16138734358, -40479.65740915029, -19075.090476881323, -42332.214693095055, -24977.94031833891, -0.392, -0.096, 0.918, 192.0, 243.0, 192.0, 253.0, 0.0, 28.0, 176.0, 0.0, 0.0, 0.0, 1.6981679682357116E9, 0.0, 2023-10-24 14:19:28.235
152.0, -49780.30768398139, -51648.75705823387, -52820.435502581066, -65322.61554272361, -40880.42418723395, -20706.745470374284, -42176.467737730476, -24870.383724019972, -0.392, -0.096, 0.918, 192.0, 0.0, 0.0, 0.0, 0.0, 0.0, 0.0, 0.0, 0.0, 0.0, 1.6981679682388544E9, 0.0, 2023-10-24 14:19:28.238
153.0, -50327.21016731384, -57391.724871602644, -54804.95748578996, -65880.69389828372, -40809.63621254399, -26244.993656276903, -40234.235255031024, -23044.447367721485, -0.392, -0.096, 0.918, 192.0, 0.0, 0.0, 0.0, 0.0, 0.0, 0.0, 0.0, 0.0, 0.0, 1.6981679682427473E9, 0.0, 2023-10-24 14:19:28.242
154.0, -50954.1765992852, -56586.39151887793, -54198.040568595, -66089.99563336321, -40422.95103346718, -25166.477282819425, -40223.886397348215, -22996.59228284267, -0.392, -0.096, 0.918, 192.0, 0.0, 0.0, 0.0, 0.0, 0.0, 0.0, 0.0, 0.0, 0.0, 1.698167968246729E9, 0.0, 2023-10-24 14:19:28.246
155.0, -50512.21555617041, -51020.963611717656, -52270.76140293615, -65593.9880721555, -40455.96456002767, -19766.564043350703, -42073.962637658435, -24726.773765894624, -0.392, -0.096, 0.918, 192.0, 0.0, 0.0, 0.0, 0.0, 0.0, 0.0, 0.0, 0.0, 0.0, 1.6981679682508063E9, 0.0, 2023-10-24 14:19:28.250
156.0, -49807.53210872795, -50774.35681514226, -52573.69459553893, -65295.391117977044, -40850.919884552946, -19853.802901959767, -42427.20960703011, -25097.790372108266, -0.392, -0.096, 0.918, 192.0, 0.0, 0.0, 0.0, 0.0, 0.0, 0.0, 0.0, 0.0, 0.0, 1.6981679682557516E9, 0.0, 2023-10-24 14:19:28.255
157.0, -50169.02687180363, -56580.89298974192, -54558.39539270347, -65769.00223124055, -40854.56321889916, -25508.5707317079, -40522.192778848745, -23310.9025133732, -0.392, -0.096, 0.918, 192.0, 0.0, 0.0, 0.0, 0.0, 0.0, 0.0, 0.0, 0.0, 0.0, 1.6981679682597516E9, 0.0, 2023-10-24 14:19:28.259
158.0, -50923.84528205935, -57340.762894244544, -54457.72313567676, -66122.31625584558, -40472.92953406925, -25906.521189990188, -40020.77609548284, -22796.074783334112, -0.392, -0.096, 0.918, 192.0, 0.0, 0.0, 0.0, 0.0, 0.0, 0.0, 0.0, 0.0, 0.0, 1.6981679682637703E9, 0.0, 2023-10-24 14:19:28.263
159.0, -50671.04705226982, -51952.53961712595, -52503.174841782435, -65700.47178274057, -40409.24941411608, -20602.675748190373, -41740.720479574265, -24402.33819512584, -0.392, -0.096, 0.918, 192.0, 0.0, 0.0, 0.0, 0.0, 0.0, 0.0, 0.0, 0.0, 0.0, 1.6981679682667549E9, 0.0, 2023-10-24 14:19:28.266
160.0, -49893.36280743633, -50160.75672635517, -52215.574945876, -65282.33769921514, -40791.620706513015, -19156.22730925409, -42596.21114685669, -25245.557754702302, -0.392, -0.096, 0.918, 192.0, 0.0, 0.0, 0.0, 0.0, 0.0, 0.0, 0.0, 0.0, 0.0, 1.6981679682707748E9, 0.0, 2023-10-24 14:19:28.270
161.0, -50052.015489580095, -55632.64258296998, -54279.37856666787, -65679.03645980793, -40926.84876046762, -24602.565121956482, -40904.742885201325, -23672.06200028205, -0.392, -0.096, 0.92, 192.0, 243.0, 192.0, 253.0, 0.0, 28.0, 192.0, 0.0, 0.0, 0.0, 1.6981679682748375E9, 0.0, 2023-10-24 14:19:28.274
162.0, -50836.606423450285, -57878.367051883586, -54774.804982519745, -66137.42603509736, -40546.64558728285, -26511.761726350993, -39904.94935571544, -22698.77763972016, -0.392, -0.096, 0.92, 192.0, 0.0, 0.0, 0.0, 0.0, 0.0, 0.0, 0.0, 0.0, 0.0, 1.6981679682787764E9, 0.0, 2023-10-24 14:19:28.278
163.0, -50761.23634114699, -52961.922044983156, -52924.92990790962, -65806.46375494763, -40380.19214632418, -21621.93764709683, -41384.52307993449, -24070.52654868681, -0.392, -0.096, 0.92, 192.0, 0.0, 0.0, 0.0, 0.0, 0.0, 0.0, 0.0, 0.0, 0.0, 1.698167968283787E9, 0.0, 2023-10-24 14:19:28.283
164.0, -49983.708558524675, -49787.28142825144, -52033.72115298762, -65310.34443501764, -40723.55964464661, -18753.068894513715, -42669.23429599217, -25302.48764782997, -0.392, -0.096, 0.92, 192.0, 0.0, 0.0, 0.0, 0.0, 0.0, 0.0, 0.0, 0.0, 0.0, 1.6981679682878635E9, 0.0, 2023-10-24 14:19:28.287
165.0, -49911.780644867504, -54497.77746174067, -53864.37372736618, -65550.6703914011, -40935.6106442941, -23506.45792561268, -41264.36010174276, -24001.70552750892, -0.392, -0.096, 0.92, 192.0, 0.0, 0.0, 0.0, 0.0, 0.0, 0.0, 0.0, 0.0, 0.0, 1.6981679682917993E9, 0.0, 2023-10-24 14:19:28.291
166.0, -50721.405532527635, -58140.955345744536, -54914.79395804334, -66083.848903638, -40619.75814339616, -26810.381032273894, -39850.0534713332, -22654.56588918756, -0.392, -0.096, 0.92, 192.0, 0.0, 0.0, 0.0, 0.0, 0.0, 0.0, 0.0, 0.0, 0.0, 1.698167968294812E9, 0.0, 2023-10-24 14:19:28.294
167.0, -50877.35365359231, -54050.78727612344, -53259.0214322831, -65895.66956706876, -40371.69848343116, -22637.62326689044, -41016.367497011124, -23731.31647483307, -0.392, -0.096, 0.92, 192.0, 0.0, 0.0, 0.0, 0.0, 0.0, 0.0, 0.0, 0.0, 0.0, 1.6981679682988086E9, 0.0, 2023-10-24 14:19:28.298
168.0, -50141.48952263469, -49760.03465176042, -51977.08183253787, -65361.79815075376, -40658.314902581566, -18645.847576361608, -42634.834961275454, -25266.031952623365, -0.392, -0.096, 0.92, 192.0, 0.0, 0.0, 0.0, 0.0, 0.0, 0.0, 0.0, 0.0, 0.0, 1.6981679683028264E9, 0.0, 2023-10-24 14:19:28.302
169.0, -49874.095603715854, -53408.33108524455, -53525.07424653462, -65474.495646297415, -40978.03425527028, -22445.845299463905, -41665.59626645998, -24387.518988551976, -0.392, -0.096, 0.92, 192.0, 0.0, 0.0, 0.0, 0.0, 0.0, 0.0, 0.0, 0.0, 0.0, 1.6981679683088248E9, 0.0, 2023-10-24 14:19:28.308
170.0, -50610.85380445168, -58141.73765680047, -54968.795772647354, -66048.15316774287, -40725.0125080362, -26863.533480588616, -39933.04549849576, -22741.268305929698, -0.392, -0.096, 0.92, 192.0, 0.0, 0.0, 0.0, 0.0, 0.0, 0.0, 0.0, 0.0, 0.0, 1.6981679683118124E9, 0.0, 2023-10-24 14:19:28.311
171.0, -50932.98714554157, -55091.931532851646, -53632.27321294227, -65981.52261752161, -40375.90061138876, -23657.39925591937, -40674.944600456314, -23410.121907010307, -0.394, -0.094, 0.916, 192.0, 243.0, 176.0, 253.0, 16.0, 28.0, 160.0, 0.0, 0.0, 0.0, 1.698167968315851E9, 0.0, 2023-10-24 14:19:28.315
172.0, -50274.191829465846, -50010.50830012659, -52030.323687830416, -65430.32859925373, -40582.587192366984, -18862.950070256004, -42490.30858162744, -25131.921485891522, -0.394, -0.094, 0.916, 192.0, 0.0, 0.0, 0.0, 0.0, 0.0, 0.0, 0.0, 0.0, 0.0, 1.6981679683188193E9, 0.0, 2023-10-24 14:19:28.318
173.0, -49809.47671049556, -52289.71568223425, -53086.19774415466, -65370.336517135685, -40941.46680134139, -21349.17930950872, -41989.96478199539, -24692.150913733356, -0.394, -0.094, 0.916, 192.0, 0.0, 0.0, 0.0, 0.0, 0.0, 0.0, 0.0, 0.0, 0.0, 1.698167968322821E9, 0.0, 2023-10-24 14:19:28.322
174.0, -50449.85418914011, -57774.94553028888, -54911.061216719296, -65954.52171021959, -40793.54295653617, -26563.30484906493, -40091.98875331745, -22891.784953091737, -0.394, -0.094, 0.916, 192.0, 0.0, 0.0, 0.0, 0.0, 0.0, 0.0, 0.0, 0.0, 0.0, 1.6981679683268607E9, 0.0, 2023-10-24 14:19:28.326
175.0, -50995.63908524979, -56099.01173102996, -54021.28297344244, -66074.70704015577, -40424.4933038346, -24635.355131072418, -40397.671210488224, -23144.91845904809, -0.394, -0.094, 0.916, 192.0, 0.0, 0.0, 0.0, 0.0, 0.0, 0.0, 0.0, 0.0, 0.0, 1.6981679683341477E9, 0.0, 2023-10-24 14:19:28.334
176.0, -50450.94942461842, -50586.624513462135, -52147.491532265136, -65533.504251659426, -40507.440627508244, -19346.463006313206, -42259.45976489303, -24902.972567435812, -0.394, -0.094, 0.916, 192.0, 0.0, 0.0, 0.0, 0.0, 0.0, 0.0, 0.0, 0.0, 0.0, 1.6981679683348196E9, 0.0, 2023-10-24 14:19:28.334
177.0, -49802.34650401432, -51316.476025161275, -52755.9507198275, -65320.51447874481, -40909.9061381705, -20378.957137937206, -42295.580183932805, -24974.520501437248, -0.394, -0.094, 0.916, 192.0, 0.0, 0.0, 0.0, 0.0, 0.0, 0.0, 0.0, 0.0, 0.0, 1.6981679683389003E9, 0.0, 2023-10-24 14:19:28.338
178.0, -50275.868210299996, -57142.435865692605, -54719.104435337125, -65847.12157811184, -40865.85084984909, -26011.10500229657, -40349.50320118704, -23144.985514281456, -0.394, -0.094, 0.916, 192.0, 0.0, 0.0, 0.0, 0.0, 0.0, 0.0, 0.0, 0.0, 0.0, 1.698167968343878E9, 0.0, 2023-10-24 14:19:28.343
179.0, -50953.59545392936, -56915.47625249341, -54320.88575612137, -66102.1996858358, -40459.831411818435, -25483.782647106964, -40138.100402128744, -22903.989005564334, -0.394, -0.094, 0.916, 192.0, 0.0, 0.0, 0.0, 0.0, 0.0, 0.0, 0.0, 0.0, 0.0, 1.698167968346927E9, 0.0, 2023-10-24 14:19:28.346
180.0, -50596.97337114494, -51366.99096763027, -52396.53466898617, -65638.53509885492, -40461.1501647413, -20097.07928861133, -41962.2039153819, -24613.986863373146, -0.394, -0.094, 0.916, 192.0, 0.0, 0.0, 0.0, 0.0, 0.0, 0.0, 0.0, 0.0, 0.0, 1.6981679683509307E9, 0.0, 2023-10-24 14:19:28.350
181.0, -49848.659318525715, -50520.01631498532, -52365.48809593774, -65282.62827189306, -40836.54771286818, -19550.10975004551, -42508.07821846941, -25157.469529803937, -0.394, -0.094, 0.916, 192.0, 0.0, 0.0, 0.0, 0.0, 0.0, 0.0, 0.0, 0.0, 0.0, 1.698167968354948E9, 0.0, 2023-10-24 14:19:28.354
182.0, -50142.763572068645, -56262.93942486518, -54461.81350491208, -65750.02560019799, -40912.18601610494, -25192.405306387584, -40688.26624015167, -23456.92645989972, -0.39, -0.094, 0.918, 192.0, 243.0, 208.0, 253.0, 16.0, 28.0, 176.0, 0.0, 0.0, 0.0, 1.6981679683588939E9, 0.0, 2023-10-24 14:19:28.358
183.0, -50925.02992451548, -57593.270551356145, -54605.51287001525, -66149.9653637368, -40530.999366164135, -26185.985050914893, -39987.82962415572, -22763.30712596263, -0.39, -0.094, 0.918, 192.0, 0.0, 0.0, 0.0, 0.0, 0.0, 0.0, 0.0, 0.0, 0.0, 1.6981679683628752E9, 0.0, 2023-10-24 14:19:28.362
184.0, -50723.506596506435, -52343.0022410157, -52671.14820136407, -65747.5669083079, -40416.78195199752, -21002.72727045146, -41617.2717949476, -24282.912824501138, -0.39, -0.094, 0.918, 192.0, 0.0, 0.0, 0.0, 0.0, 0.0, 0.0, 0.0, 0.0, 0.0, 1.69816796836686E9, 0.0, 2023-10-24 14:19:28.366
185.0, -49950.98560464211, -49987.32954112644, -52169.709166253706, -65294.18412377645, -40788.53616577818, -18995.540618364885, -42651.285845194565, -25289.031897667875, -0.39, -0.094, 0.918, 192.0, 0.0, 0.0, 0.0, 0.0, 0.0, 0.0, 0.0, 0.0, 0.0, 1.6981679683719015E9, 0.0, 2023-10-24 14:19:28.371
186.0, -50037.35274521742, -55230.80292115247, -54172.269007238036, -65646.20174720309, -40968.557115621225, -24225.22297206199, -41066.435404591015, -23818.153002041938, -0.39, -0.094, 0.918, 192.0, 0.0, 0.0, 0.0, 0.0, 0.0, 0.0, 0.0, 0.0, 0.0, 1.6981679683749037E9, 0.0, 2023-10-24 14:19:28.374
187.0, -50816.422798207146, -58042.808835841286, -54843.96127986447, -66131.74869200573, -40605.877710089415, -26681.43381851123, -39894.37698058808, -22684.45017152431, -0.39, -0.094, 0.918, 192.0, 0.0, 0.0, 0.0, 0.0, 0.0, 0.0, 0.0, 0.0, 0.0, 1.6981679683788877E9, 0.0, 2023-10-24 14:19:28.378
188.0, -50814.657010395174, -53395.45648043829, -53010.60414440682, -65839.32081929693, -40395.57014650943, -22005.650044161088, -41253.519505681936, -23940.349988979102, -0.39, -0.094, 0.918, 192.0, 0.0, 0.0, 0.0, 0.0, 0.0, 0.0, 0.0, 0.0, 0.0, 1.6981679683829224E9, 0.0, 2023-10-24 14:19:28.382
189.0, -50052.88720761385, -49754.40201215768, -51993.77858564599, -65323.24139156836, -40727.33708945955, -18688.002966404318, -42683.785281632576, -25306.28744438737, -0.39, -0.094, 0.918, 192.0, 0.0, 0.0, 0.0, 0.0, 0.0, 0.0, 0.0, 0.0, 0.0, 1.6981679683869708E9, 0.0, 2023-10-24 14:19:28.386
190.0, -49955.00891864407, -54144.48578888009, -53800.26892426836, -65527.82690856778, -41000.520110192316, -23135.843650799234, -41440.13422013929, -24164.649744588107, -0.39, -0.094, 0.918, 192.0, 0.0, 0.0, 0.0, 0.0, 0.0, 0.0, 0.0, 0.0, 0.0, 1.698167968391023E9, 0.0, 2023-10-24 14:19:28.391
191.0, -50768.925341239614, -58289.236818461046, -55109.03061735995, -66114.87312494197, -40739.51879018769, -26961.165900369397, -39918.36040238862, -22715.49674457273, -0.39, -0.094, 0.918, 192.0, 0.0, 0.0, 0.0, 0.0, 0.0, 0.0, 0.0, 0.0, 0.0, 1.6981679683949533E9, 0.0, 2023-10-24 14:19:28.394
192.0, -50940.765552612014, -54495.251714617225, -53474.44754534335, -65955.4157799978, -40419.57592005443, -23093.509446800883, -40925.73117324486, -23628.63256080539, -0.388, -0.09, 0.926, 192.0, 243.0, 224.0, 253.0, 48.0, 28.0, 240.0, 0.0, 0.0, 0.0, 1.6981679683999646E9, 0.0, 2023-10-24 14:19:28.399
193.0, -50171.016177060155, -49770.987006543524, -51887.31722680536, -65374.873921260114, -40627.60360569997, -18677.02825987676, -42608.88458596284, -25222.691920124522, -0.388, -0.09, 0.926, 192.0, 0.0, 0.0, 0.0, 0.0, 0.0, 0.0, 0.0, 0.0, 0.0, 1.698167968403188E9, 0.0, 2023-10-24 14:19:28.403
194.0, -49807.1074255833, -52898.82307038583, -53284.010682584136, -65406.92632280902, -40955.973083492885, -21987.34396545219, -41800.354933781025, -24500.551760262464, -0.388, -0.09, 0.926, 192.0, 0.0, 0.0, 0.0, 0.0, 0.0, 0.0, 0.0, 0.0, 0.0, 1.6981679684059522E9, 0.0, 2023-10-24 14:19:28.405
195.0, -50544.80439958625, -58002.48628884391, -54936.385743187166, -66011.36219636943, -40764.64215095546, -26794.176017543796, -40002.73823770741, -22797.929978123902, -0.388, -0.09, 0.926, 192.0, 0.0, 0.0, 0.0, 0.0, 0.0, 0.0, 0.0, 0.0, 0.0, 1.6981679684109464E9, 0.0, 2023-10-24 14:19:28.410
196.0, -50947.51577943752, -55471.8441333585, -53774.966749544954, -66021.80046103007, -40405.56137628095, -24077.00855457885, -40577.84862254246, -23306.14159180422, -0.388, -0.09, 0.926, 192.0, 0.0, 0.0, 0.0, 0.0, 0.0, 0.0, 0.0, 0.0, 0.0, 1.6981679684149878E9, 0.0, 2023-10-24 14:19:28.414
197.0, -50326.405504513445, -50189.76929065816, -52050.306147373456, -65463.0515531363, -40553.90990423082, -19040.0429415754, -42416.10079003582, -25046.046083694233, -0.388, -0.09, 0.926, 192.0, 0.0, 0.0, 0.0, 0.0, 0.0, 0.0, 0.0, 0.0, 0.0, 1.698167968418955E9, 0.0, 2023-10-24 14:19:28.418
198.0, -49820.63023097876, -51911.546517794915, -52969.0522514644, -65359.38416235259, -40945.51246708781, -20987.19280805502, -42141.375498935646, -24820.785203073647, -0.388, -0.09, 0.926, 192.0, 0.0, 0.0, 0.0, 0.0, 0.0, 0.0, 0.0, 0.0, 0.0, 1.6981679684229841E9, 0.0, 2023-10-24 14:19:28.422
199.0, -50421.8027498487, -57583.838115196006, -54880.036995415336, -65935.52272743257, -40844.70609959437, -26419.42667000612, -40215.41508619965, -23001.464963133927, -0.388, -0.09, 0.926, 192.0, 0.0, 0.0, 0.0, 0.0, 0.0, 0.0, 0.0, 0.0, 0.0, 1.6981679684269671E9, 0.0, 2023-10-24 14:19:28.426
200.0, -50996.39904456127, -56448.011868955124, -54175.91234158425, -66101.19385733531, -40454.802269315995, -25017.413499046983, -40312.399305391235, -23057.09845508319, -0.388, -0.09, 0.926, 192.0, 0.0, 0.0, 0.0, 0.0, 0.0, 0.0, 0.0, 0.0, 0.0, 1.6981679684300213E9, 0.0, 2023-10-24 14:19:28.430
201.0, -50490.93669544896, -50878.31477860389, -52215.55259413154, -65578.76653418143, -40502.83616815045, -19633.30294290816, -42172.198554539515, -24803.39554588742, -0.388, -0.09, 0.926, 192.0, 0.0, 0.0, 0.0, 0.0, 0.0, 0.0, 0.0, 0.0, 0.0, 1.69816796843406E9, 0.0, 2023-10-24 14:19:28.434
202.0, -49820.87610016777, -51000.15413762977, -52582.99292123234, -65322.727301445884, -40899.02083862077, -20059.885985837696, -42418.894758092734, -25066.85555778212, -0.39, -0.088, 0.926, 192.0, 243.0, 208.0, 253.0, 64.0, 28.0, 240.0, 0.0, 0.0, 0.0, 1.698167968438979E9, 0.0, 2023-10-24 14:19:28.438
203.0, -50239.41251509339, -56837.78158876677, -54697.33383623765, -65829.73192092561, -40904.51936775677, -25766.554566211056, -40505.764246674094, -23280.90647231418, -0.39, -0.088, 0.926, 192.0, 0.0, 0.0, 0.0, 0.0, 0.0, 0.0, 0.0, 0.0, 0.0, 1.6981679684430227E9, 0.0, 2023-10-24 14:19:28.443
204.0, -50947.0240410595, -57223.32682887636, -54475.91745566338, -66123.83617446854, -40498.61168844839, -25829.474726852743, -40086.33376197026, -22857.698542797392, -0.39, -0.088, 0.926, 192.0, 0.0, 0.0, 0.0, 0.0, 0.0, 0.0, 0.0, 0.0, 0.0, 1.69816796844701E9, 0.0, 2023-10-24 14:19:28.447
205.0, -50658.46302014149, -51769.21060910352, -52500.91731559245, -65689.74294540203, -40459.272618207055, -20463.49143546718, -41853.01564371773, -24504.440963797686, -0.39, -0.088, 0.926, 192.0, 0.0, 0.0, 0.0, 0.0, 0.0, 0.0, 0.0, 0.0, 0.0, 1.6981679684510539E9, 0.0, 2023-10-24 14:19:28.451
206.0, -49905.4774529311, -50324.97499286831, -52297.225868371235, -65304.465926225894, -40844.41552691645, -19330.705026472217, -42604.011905671585, -25235.834745864242, -0.39, -0.088, 0.926, 192.0, 0.0, 0.0, 0.0, 0.0, 0.0, 0.0, 0.0, 0.0, 0.0, 1.6981679684550142E9, 0.0, 2023-10-24 14:19:28.455
207.0, -50128.61491782843, -55911.63705726112, -54381.74955627317, -65722.22003009559, -40954.9672549924, -24864.996953606245, -40850.04816651919, -23604.179752371285, -0.39, -0.088, 0.926, 192.0, 0.0, 0.0, 0.0, 0.0, 0.0, 0.0, 0.0, 0.0, 0.0, 1.6981679684580362E9, 0.0, 2023-10-24 14:19:28.458
208.0, -50932.49540716355, -57845.68880148993, -54831.0419715693, -66163.08583773205, -40584.30827669004, -26470.0980746863, -39962.61685641013, -22734.74159654875, -0.39, -0.088, 0.926, 192.0, 0.0, 0.0, 0.0, 0.0, 0.0, 0.0, 0.0, 0.0, 0.0, 1.698167968462031E9, 0.0, 2023-10-24 14:19:28.462
209.0, -50810.47723418203, -52808.63378150866, -52851.07974422929, -65813.30338875097, -40433.07637370544, -21445.7611973001, -41513.49264544161, -24175.289174948834, -0.39, -0.088, 0.926, 192.0, 0.0, 0.0, 0.0, 0.0, 0.0, 0.0, 0.0, 0.0, 0.0, 1.6981679684670238E9, 0.0, 2023-10-24 14:19:28.467
210.0, -50013.10110248341, -49905.633915142294, -52103.83857534392, -65323.50961250182, -40776.30976156113, -18883.89365481063, -42708.21573832223, -25331.097880732763, -0.39, -0.088, 0.926, 192.0, 0.0, 0.0, 0.0, 0.0, 0.0, 0.0, 0.0, 0.0, 0.0, 1.698167968471023E9, 0.0, 2023-10-24 14:19:28.471
211.0, -50000.002980232595, -54817.40740745156, -54033.46467417058, -65605.70038625007, -40990.05949378723, -23848.23845007878, -41238.566188641336, -23976.403352785514, -0.39, -0.088, 0.926, 192.0, 0.0, 0.0, 0.0, 0.0, 0.0, 0.0, 0.0, 0.0, 0.0, 1.6981679684750943E9, 0.0, 2023-10-24 14:19:28.475
212.0, -50819.976725575536, -58170.54905540336, -54916.313876666296, -66138.34245662004, -40662.33821658352, -26843.193393134286, -39911.65487905203, -22696.855389697004, -0.39, -0.088, 0.926, 192.0, 0.0, 0.0, 0.0, 0.0, 0.0, 0.0, 0.0, 0.0, 0.0, 1.6981679684790807E9, 0.0, 2023-10-24 14:19:28.479
213.0, -50910.233069686066, -53851.70028826002, -53171.514352740574, -65899.4023083928, -40404.55554778046, -22456.037694935527, -41134.34000424624, -23815.694310151855, -0.39, -0.088, 0.92, 192.0, 243.0, 208.0, 253.0, 64.0, 28.0, 192.0, 0.0, 0.0, 0.0, 1.698167968482071E9, 0.0, 2023-10-24 14:19:28.482
214.0, -50158.40979318736, -49783.7498526275, -52025.22749009461, -65370.69414504697, -40709.4556938953, -18708.387757347555, -42690.848432880455, -25302.15237166314, -0.39, -0.088, 0.92, 192.0, 0.0, 0.0, 0.0, 0.0, 0.0, 0.0, 0.0, 0.0, 0.0, 1.698167968486127E9, 0.0, 2023-10-24 14:19:28.486
215.0, -49956.01474714455, -53705.92221092251, -53643.13616074755, -65524.138870732655, -41009.952546352455, -22751.483053145774, -41623.59733862845, -24333.2936565034, -0.39, -0.088, 0.92, 192.0, 0.0, 0.0, 0.0, 0.0, 0.0, 0.0, 0.0, 0.0, 0.0, 1.698167968490079E9, 0.0, 2023-10-24 14:19:28.490
216.0, -50701.71364566251, -58226.56252700836, -54989.60524673525, -66088.20749380678, -40741.79866812214, -26941.831641415556, -39953.76556560583, -22743.101148975034, -0.39, -0.088, 0.92, 192.0, 0.0, 0.0, 0.0, 0.0, 0.0, 0.0, 0.0, 0.0, 0.0, 1.6981679684940584E9, 0.0, 2023-10-24 14:19:28.494
217.0, -50998.61186726235, -54948.187464259565, -53584.105203641084, -66006.62362654491, -40429.03070795903, -23510.36948089236, -40805.59054679758, -23515.063347227973, -0.39, -0.088, 0.92, 192.0, 0.0, 0.0, 0.0, 0.0, 0.0, 0.0, 0.0, 0.0, 0.0, 1.6981679684990976E9, 0.0, 2023-10-24 14:19:28.499
218.0, -50301.50566119023, -50013.23521295014, -52044.89702521527, -65458.76001820088, -40653.73279496823, -18854.07642770725, -42593.126606121856, -25207.828010061745, -0.39, -0.088, 0.92, 192.0, 0.0, 0.0, 0.0, 0.0, 0.0, 0.0, 0.0, 0.0, 0.0, 1.698167968503128E9, 0.0, 2023-10-24 14:19:28.503
219.0, -49860.30457738693, -52592.42535739248, -53228.9136325018, -65443.13614882662, -41004.31990674972, -21657.85690043651, -41993.31754366369, -24674.403628635842, -0.39, -0.088, 0.92, 192.0, 0.0, 0.0, 0.0, 0.0, 0.0, 0.0, 0.0, 0.0, 0.0, 1.6981679685071392E9, 0.0, 2023-10-24 14:19:28.507
220.0, -50507.208765412426, -57908.83247957617, -54965.957101101536, -66007.54004806757, -40815.15709342445, -26730.76411852409, -40104.95276510152, -22887.42636292295, -0.39, -0.088, 0.92, 192.0, 0.0, 0.0, 0.0, 0.0, 0.0, 0.0, 0.0, 0.0, 0.0, 1.698167968510167E9, 0.0, 2023-10-24 14:19:28.510
221.0, -51003.46219580915, -55896.72844370943, -53937.218062546024, -66071.80131337659, -40436.764411540564, -24490.068792112925, -40492.53201395655, -23216.667558749625, -0.39, -0.088, 0.92, 192.0, 0.0, 0.0, 0.0, 0.0, 0.0, 0.0, 0.0, 0.0, 0.0, 1.6981679685141382E9, 0.0, 2023-10-24 14:19:28.514
222.0, -50462.81820092419, -50480.11845113259, -52152.07363987847, -65555.81129262582, -40575.054654485546, -19294.428145221253, -42379.555687851396, -24992.51365572377, -0.39, -0.088, 0.92, 192.0, 0.0, 0.0, 0.0, 0.0, 0.0, 0.0, 0.0, 0.0, 0.0, 1.6981679685181053E9, 0.0, 2023-10-24 14:19:28.518
223.0, -49859.34345237535, -51576.180943987485, -52845.06712497081, -65382.11588646363, -40968.8700400436, -20654.62120230451, -42298.41885547863, -24951.677018603925, -0.384, -0.088, 0.926, 192.0, 244.0, 0.0, 253.0, 64.0, 28.0, 240.0, 0.0, 0.0, 0.0, 1.6981679685221655E9, 0.0, 2023-10-24 14:19:28.522
224.0, -50389.5938860886, -57371.85417078187, -54834.305326259775, -65940.0154280681, -40906.061638124185, -26238.064615495758, -40362.80248913795, -23126.72413906147, -0.384, -0.088, 0.926, 192.0, 0.0, 0.0, 0.0, 0.0, 0.0, 0.0, 0.0, 0.0, 0.0, 1.698167968527129E9, 0.0, 2023-10-24 14:19:28.527
225.0, -51049.46208589817, -56826.67277177248, -54319.25407877613, -66168.00322151223, -40498.835205892945, -25400.768268199954, -40267.11467112478, -23000.034451488787, -0.384, -0.088, 0.926, 192.0, 0.0, 0.0, 0.0, 0.0, 0.0, 0.0, 0.0, 0.0, 0.0, 1.69816796853121E9, 0.0, 2023-10-24 14:19:28.531
226.0, -50629.048124438305, -51261.06605065657, -52337.771932813164, -65668.95582305858, -40508.66997345328, -19978.23506334246, -42098.21428039244, -24717.27427450112, -0.384, -0.088, 0.926, 192.0, 0.0, 0.0, 0.0, 0.0, 0.0, 0.0, 0.0, 0.0, 0.0, 1.6981679685341415E9, 0.0, 2023-10-24 14:19:28.534
227.0, -49920.27430776052, -50784.57156235833, -52549.88998769403, -65353.975040194404, -40921.439638309435, -19816.095509063663, -42540.063564784956, -25173.22750964493, -0.384, -0.088, 0.926, 192.0, 0.0, 0.0, 0.0, 0.0, 0.0, 0.0, 0.0, 0.0, 0.0, 1.6981679685381377E9, 0.0, 2023-10-24 14:19:28.538
228.0, -50264.84880028353, -56595.51103061569, -54673.372766181565, -65838.9408396412, -40989.031313542284, -25507.43079274068, -40684.10881568299, -23442.26371553704, -0.384, -0.088, 0.926, 192.0, 0.0, 0.0, 0.0, 0.0, 0.0, 0.0, 0.0, 0.0, 0.0, 1.6981679685421848E9, 0.0, 2023-10-24 14:19:28.542
229.0, -50993.359207315356, -57549.39407699038, -54647.087114702124, -66189.97498631179, -40580.5308318771, -26142.51090794932, -40078.93533455555, -22833.46925180784, -0.384, -0.088, 0.926, 192.0, 0.0, 0.0, 0.0, 0.0, 0.0, 0.0, 0.0, 0.0, 0.0, 1.698167968546406E9, 0.0, 2023-10-24 14:19:28.546
230.0, -50750.418096830625, -52164.09887839543, -52645.153122562544, -65775.50658887703, -40479.56800217248, -20864.79465541776, -41760.59118039503, -24398.65015729072, -0.384, -0.088, 0.926, 192.0, 0.0, 0.0, 0.0, 0.0, 0.0, 0.0, 0.0, 0.0, 0.0, 1.69816796855215E9, 0.0, 2023-10-24 14:19:28.552
231.0, -49969.09051765091, -50119.54010957958, -52213.38447491938, -65339.98284816538, -40850.070518263645, -19150.70642837363, -42693.03890383708, -25303.91815947511, -0.384, -0.088, 0.926, 192.0, 0.0, 0.0, 0.0, 0.0, 0.0, 0.0, 0.0, 0.0, 0.0, 1.698167968555185E9, 0.0, 2023-10-24 14:19:28.555
232.0, -50069.919236888796, -55494.06176734708, -54250.74598202062, -65691.508733214, -40993.50166243335, -24494.405030537255, -41029.51032275085, -23759.8596525025, -0.384, -0.088, 0.926, 192.0, 0.0, 0.0, 0.0, 0.0, 0.0, 0.0, 0.0, 0.0, 0.0, 1.698167968559201E9, 0.0, 2023-10-24 14:19:28.559
233.0, -50894.67625554517, -58003.13448943311, -54852.92432939105, -66178.79911408415, -40635.024384859134, -26662.636001424315, -39961.20869650945, -22723.1633929209, -0.388, -0.088, 0.92, 192.0, 243.0, 224.0, 253.0, 64.0, 28.0, 192.0, 0.0, 0.0, 0.0, 1.6981679685621977E9, 0.0, 2023-10-24 14:19:28.562
234.0, -50878.67240651517, -53212.9097834718, -53029.670182427195, -65895.93778800224, -40455.29400769401, -21870.444341950937, -41405.86899588931, -24055.774397346308, -0.388, -0.088, 0.92, 192.0, 0.0, 0.0, 0.0, 0.0, 0.0, 0.0, 0.0, 0.0, 0.0, 1.69816796856619E9, 0.0, 2023-10-24 14:19:28.566
235.0, -50116.612031055934, -49830.7108677281, -52078.37993840932, -65382.96525275293, -40788.11148263353, -18805.416680028044, -42759.423584869335, -25357.607049656755, -0.388, -0.088, 0.92, 192.0, 0.0, 0.0, 0.0, 0.0, 0.0, 0.0, 0.0, 0.0, 0.0, 1.6981679685701785E9, 0.0, 2023-10-24 14:19:28.570
236.0, -49993.14099468482, -54408.1916699638, -53899.823594072295, -65598.57017976882, -41032.058421618756, -23440.87790738081, -41432.33346132439, -24137.78294775283, -0.388, -0.088, 0.92, 192.0, 0.0, 0.0, 0.0, 0.0, 0.0, 0.0, 0.0, 0.0, 0.0, 1.6981679685742817E9, 0.0, 2023-10-24 14:19:28.574
237.0, -50779.52006811143, -58255.172759911155, -54996.131956116194, -66146.00910496821, -40721.212711478795, -26936.690740190836, -39959.57701916421, -22724.102166188022, -0.388, -0.088, 0.92, 192.0, 0.0, 0.0, 0.0, 0.0, 0.0, 0.0, 0.0, 0.0, 0.0, 1.6981679685783148E9, 0.0, 2023-10-24 14:19:28.578
238.0, -50964.52545696801, -54312.07916880598, -53399.30098048461, -65978.61689074241, -40446.845048289906, -22915.030767325257, -41060.57924754373, -23736.61383826898, -0.388, -0.088, 0.92, 192.0, 0.0, 0.0, 0.0, 0.0, 0.0, 0.0, 0.0, 0.0, 0.0, 1.6981679685833352E9, 0.0, 2023-10-24 14:19:28.583
239.0, -50235.36684934698, -49853.6661092837, -52045.835798482396, -65434.53072721133, -40705.92411827137, -18757.85216782715, -42718.117561115934, -25312.031842712386, -0.388, -0.088, 0.92, 192.0, 0.0, 0.0, 0.0, 0.0, 0.0, 0.0, 0.0, 0.0, 0.0, 1.6981679685873148E9, 0.0, 2023-10-24 14:19:28.587
240.0, -49932.23249104411, -53279.58503718198, -53489.4232141284, -65507.62093158018, -41010.89131961958, -22318.976797935582, -41815.308250821625, -24490.60523397985, -0.388, -0.088, 0.92, 192.0, 0.0, 0.0, 0.0, 0.0, 0.0, 0.0, 0.0, 0.0, 0.0, 1.698167968590237E9, 0.0, 2023-10-24 14:19:28.590
241.0, -50668.36484293519, -58170.861979825735, -55045.439904384606, -66084.43004899383, -40772.822889426105, -26915.769507380668, -40051.80031678681, -22819.253542334267, -0.388, -0.088, 0.92, 192.0, 0.0, 0.0, 0.0, 0.0, 0.0, 0.0, 0.0, 0.0, 0.0, 1.6981679685942528E9, 0.0, 2023-10-24 14:19:28.594
242.0, -51050.6467283543, -55366.09803034044, -53766.00370001837, -66065.05108655109, -40431.13177193782, -23930.425814440947, -40733.662633140404, -23428.025654319008, -0.388, -0.088, 0.92, 192.0, 0.0, 0.0, 0.0, 0.0, 0.0, 0.0, 0.0, 0.0, 0.0, 1.698167968598255E9, 0.0, 2023-10-24 14:19:28.598
243.0, -50401.75323507228, -50182.393214987904, -52081.4421273997, -65505.85514376821, -40601.85439608746, -18996.546446865374, -42553.2957975025, -25151.769834967832, -0.39, -0.094, 0.924, 192.0, 243.0, 208.0, 253.0, 16.0, 28.0, 224.0, 0.0, 0.0, 0.0, 1.6981679686022422E9, 0.0, 2023-10-24 14:19:28.602
244.0, -49918.24029901509, -52219.19592847776, -53128.599003386385, -65425.925305596036, -40978.59304888166, -21263.86270092281, -42148.05867052778, -24813.207961703298, -0.39, -0.094, 0.924, 192.0, 0.0, 0.0, 0.0, 0.0, 0.0, 0.0, 0.0, 0.0, 0.0, 1.6981679686082666E9, 0.0, 2023-10-24 14:19:28.608
245.0, -50534.92492853701, -57805.38860623701, -55002.993941663975, -66011.27278939162, -40861.76048061377, -26608.388317631285, -40242.81832490186, -23018.966379042435, -0.39, -0.094, 0.924, 192.0, 0.0, 0.0, 0.0, 0.0, 0.0, 0.0, 0.0, 0.0, 0.0, 1.6981679686112783E9, 0.0, 2023-10-24 14:19:28.611
246.0, -51075.01012981059, -56337.01310599007, -54153.00180351756, -66135.63789554095, -40456.45629840568, -24884.55473000464, -40443.961673255166, -23164.498587190938, -0.39, -0.094, 0.924, 192.0, 0.0, 0.0, 0.0, 0.0, 0.0, 0.0, 0.0, 0.0, 0.0, 1.6981679686142576E9, 0.0, 2023-10-24 14:19:28.614
247.0, -50569.570132442735, -50795.210992719054, -52257.797391152075, -65616.60803754425, -40526.0149271506, -19546.175843021374, -42322.156408090166, -24922.55269557866, -0.39, -0.094, 0.924, 192.0, 0.0, 0.0, 0.0, 0.0, 0.0, 0.0, 0.0, 0.0, 0.0, 1.6981679686182513E9, 0.0, 2023-10-24 14:19:28.618
248.0, -49913.36761872383, -51249.15257086189, -52754.29669073781, -65381.64649983007, -40926.15585638951, -20314.07002378345, -42452.26591256451, -25085.608671380123, -0.39, -0.094, 0.924, 192.0, 0.0, 0.0, 0.0, 0.0, 0.0, 0.0, 0.0, 0.0, 0.0, 1.698167968622264E9, 0.0, 2023-10-24 14:19:28.622
249.0, -50350.187760613895, -57072.519609036404, -54794.1839449625, -65899.53641885954, -40903.267670067275, -25978.694972836372, -40523.62329049388, -23277.97839379053, -0.39, -0.094, 0.924, 192.0, 0.0, 0.0, 0.0, 0.0, 0.0, 0.0, 0.0, 0.0, 0.0, 1.6981679686263947E9, 0.0, 2023-10-24 14:19:28.626
250.0, -51044.947033518205, -57129.06952250833, -54451.08466757354, -66181.74954435225, -40501.00332510511, -25706.5177806041, -40227.14975203869, -22959.8683667026, -0.39, -0.094, 0.924, 192.0, 0.0, 0.0, 0.0, 0.0, 0.0, 0.0, 0.0, 0.0, 0.0, 1.6981679686302876E9, 0.0, 2023-10-24 14:19:28.630
251.0, -50690.850697857226, -51605.57348794622, -52469.80368731066, -65716.07330037038, -40470.22497299015, -20314.40529995028, -42012.852968317624, -24634.997503161136, -0.39, -0.094, 0.924, 192.0, 0.0, 0.0, 0.0, 0.0, 0.0, 0.0, 0.0, 0.0, 0.0, 1.6981679686342938E9, 0.0, 2023-10-24 14:19:28.634
252.0, -49938.423924258226, -50485.460518057414, -52418.68524774138, -65334.88665042957, -40861.02287304674, -19529.032055024156, -42645.764964314105, -25269.5635282473, -0.39, -0.094, 0.924, 192.0, 0.0, 0.0, 0.0, 0.0, 0.0, 0.0, 0.0, 0.0, 0.0, 1.698167968639284E9, 0.0, 2023-10-24 14:19:28.639
253.0, -50185.678921422834, -56158.22150209207, -54528.08642722207, -65768.01875448451, -40948.999339222835, -25134.290770803782, -40844.951968783374, -23590.05344987553, -0.39, -0.094, 0.924, 192.0, 0.0, 0.0, 0.0, 0.0, 0.0, 0.0, 0.0, 0.0, 0.0, 1.6981679686422799E9, 0.0, 2023-10-24 14:19:28.642
254.0, -50986.87720142332, -57772.71035584335, -54740.293889080756, -66196.56875092612, -40573.713549818225, -26375.773713084905, -40070.240505962436, -22818.04654813368, -0.388, -0.09, 0.928, 192.0, 243.0, 224.0, 253.0, 48.0, 29.0, 0.0, 0.0, 0.0, 0.0, 1.6981679686453052E9, 0.0, 2023-10-24 14:19:28.645
255.0, -50845.1000863433, -52608.98800003386, -52798.28492382586, -65836.21392681765, -40455.18224897173, -21251.54688972794, -41681.13072885641, -24312.797106837883, -0.388, -0.09, 0.928, 192.0, 0.0, 0.0, 0.0, 0.0, 0.0, 0.0, 0.0, 0.0, 0.0, 1.6981679686503122E9, 0.0, 2023-10-24 14:19:28.650
0.0, -50077.76469919261, -50024.92517530027, -52208.444739394756, -65383.16641845303, -40828.99282324229, -19005.174220225123, -42802.60715515699, -25396.40967803117, -0.388, -0.09, 0.928, 192.0, 0.0, 0.0, 0.0, 0.0, 0.0, 0.0, 0.0, 0.0, 0.0, 1.6981679686543047E9, 0.0, 2023-10-24 14:19:28.654
1.0, -50105.05617917254, -55129.84009144785, -54161.60722513285, -65693.6545006817, -41010.578395197204, -24113.82187769674, -41263.39897673118, -23963.72991367935, -0.388, -0.09, 0.928, 192.0, 0.0, 0.0, 0.0, 0.0, 0.0, 0.0, 0.0, 0.0, 0.0, 1.698167968658305E9, 0.0, 2023-10-24 14:19:28.658
2.0, -50935.401133942745, -58196.36532024924, -54988.08532811229, -66226.45303326286, -40681.35955111498, -26834.699730241267, -40046.97233998446, -22786.642347173973, -0.388, -0.09, 0.928, 192.0, 0.0, 0.0, 0.0, 0.0, 0.0, 0.0, 0.0, 0.0, 0.0, 1.698167968662322E9, 0.0, 2023-10-24 14:19:28.662
3.0, -50991.41460554774, -53694.925152650496, -53206.316018857484, -65971.6207947279, -40451.49421113661, -22296.35683254681, -41351.37544290727, -23987.13219012406, -0.388, -0.09, 0.928, 192.0, 0.0, 0.0, 0.0, 0.0, 0.0, 0.0, 0.0, 0.0, 0.0, 1.6981679686674476E9, 0.0, 2023-10-24 14:19:28.667
4.0, -50212.545718258116, -49851.74385926055, -52092.23801997161, -65444.231384304934, -40753.175706049886, -18763.551862663255, -42829.92098688138, -25400.947082155595, -0.388, -0.09, 0.928, 192.0, 0.0, 0.0, 0.0, 0.0, 0.0, 0.0, 0.0, 0.0, 0.0, 1.6981679686704357E9, 0.0, 2023-10-24 14:19:28.670
5.0, -50046.13698078835, -54012.4987378715, -53795.77622363284, -65612.45061307558, -41032.90778790806, -23023.481431422406, -41655.51562971063, -24333.830098370327, -0.388, -0.09, 0.928, 192.0, 0.0, 0.0, 0.0, 0.0, 0.0, 0.0, 0.0, 0.0, 0.0, 1.6981679686743145E9, 0.0, 2023-10-24 14:19:28.674
6.0, -50816.2439842515, -58320.126929298276, -55125.39209430124, -66169.9701750243, -40763.45750849933, -27001.846075278056, -40051.88972376463, -22811.318673052632, -0.388, -0.09, 0.928, 192.0, 0.0, 0.0, 0.0, 0.0, 0.0, 0.0, 0.0, 0.0, 0.0, 1.6981679686784391E9, 0.0, 2023-10-24 14:19:28.678
7.0, -51058.44748716921, -54783.0304244793, -53609.765006275775, -66051.14830149988, -40459.63024611834, -23334.885935173745, -40990.70769437643, -23664.127131000416, -0.388, -0.09, 0.928, 192.0, 0.0, 0.0, 0.0, 0.0, 0.0, 0.0, 0.0, 0.0, 0.0, 1.6981679686824217E9, 0.0, 2023-10-24 14:19:28.682
8.0, -50347.662013490444, -49973.78438398652, -52069.37218539383, -65495.886265741145, -40689.272068652164, -18828.14840413909, -42729.874578699426, -25311.696566545557, -0.388, -0.09, 0.922, 192.0, 243.0, 224.0, 253.0, 48.0, 28.0, 208.0, 0.0, 0.0, 0.0, 1.6981679686864872E9, 0.0, 2023-10-24 14:19:28.686
9.0, -49959.61337800186, -52870.056375271844, -53352.98816597321, -65511.71130081551, -41032.14782859657, -21918.3217785742, -42019.290270720754, -24676.21411993672, -0.388, -0.09, 0.922, 192.0, 0.0, 0.0, 0.0, 0.0, 0.0, 0.0, 0.0, 0.0, 0.0, 1.6981679686904655E9, 0.0, 2023-10-24 14:19:28.690
10.0, -50635.910109986085, -58070.904978621606, -55043.80822703937, -66090.50972348568, -40834.89368377849, -26836.35375933096, -40175.517222346934, -22928.799441909727, -0.388, -0.09, 0.922, 192.0, 0.0, 0.0, 0.0, 0.0, 0.0, 0.0, 0.0, 0.0, 0.0, 1.6981679686944609E9, 0.0, 2023-10-24 14:19:28.694
11.0, -51084.15199329281, -55759.01934612028, -53945.37644927221, -66127.41245358139, -40469.420310189766, -24311.34424344829, -40672.46355682177, -23361.417455842195, -0.388, -0.09, 0.922, 192.0, 0.0, 0.0, 0.0, 0.0, 0.0, 0.0, 0.0, 0.0, 0.0, 1.69816796869842E9, 0.0, 2023-10-24 14:19:28.698
12.0, -50508.81809101321, -50415.03017127874, -52176.8170209905, -65596.9385024236, -40625.12256206543, -19198.3826992968, -42543.08105028642, -25124.478354987903, -0.388, -0.09, 0.922, 192.0, 0.0, 0.0, 0.0, 0.0, 0.0, 0.0, 0.0, 0.0, 0.0, 1.6981679687014315E9, 0.0, 2023-10-24 14:19:28.701
13.0, -49963.65904374827, -51854.46016245606, -52998.80242333441, -65460.25758507939, -41023.14007558108, -20893.874274954116, -42351.88422821573, -24981.18132128493, -0.388, -0.09, 0.922, 192.0, 0.0, 0.0, 0.0, 0.0, 0.0, 0.0, 0.0, 0.0, 0.0, 1.6981679687064824E9, 0.0, 2023-10-24 14:19:28.706
14.0, -50531.25924244634, -57591.817687966555, -54954.82593236279, -66010.89280973587, -40930.08976341364, -26394.571530171816, -40403.81794021344, -23145.521956148383, -0.388, -0.09, 0.922, 192.0, 0.0, 0.0, 0.0, 0.0, 0.0, 0.0, 0.0, 0.0, 0.0, 1.698167968710458E9, 0.0, 2023-10-24 14:19:28.710
15.0, -51155.43170636079, -56739.88094805252, -54358.794314717576, -66209.9797975993, -40549.84188673996, -25248.485833225946, -40427.130809680326, -23127.685264073047, -0.388, -0.09, 0.922, 192.0, 0.0, 0.0, 0.0, 0.0, 0.0, 0.0, 0.0, 0.0, 0.0, 1.6981679687144244E9, 0.0, 2023-10-24 14:19:28.714
16.0, -50691.99063682445, -51176.04001474858, -52428.788236235174, -65709.16661133368, -40590.2314889707, -19856.06042814975, -42282.95144831556, -24864.34875301704, -0.388, -0.09, 0.922, 192.0, 0.0, 0.0, 0.0, 0.0, 0.0, 0.0, 0.0, 0.0, 0.0, 1.69816796871841E9, 0.0, 2023-10-24 14:19:28.718
17.0, -49968.71053799517, -50980.01521587554, -52683.32990209221, -65415.71055837996, -40982.7728250948, -20002.06202293182, -42611.499740064115, -25206.50925713888, -0.388, -0.09, 0.922, 192.0, 0.0, 0.0, 0.0, 0.0, 0.0, 0.0, 0.0, 0.0, 0.0, 1.6981679687224092E9, 0.0, 2023-10-24 14:19:28.722
18.0, -50309.552289194144, -56744.932442299425, -54700.88776360605, -65900.87752352685, -40989.880679831585, -25673.347791832424, -40714.306022442106, -23429.031482819497, -0.388, -0.08600000000000001, 0.924, 192.0, 243.0, 224.0, 253.0, 80.0, 28.0, 224.0, 0.0, 0.0, 0.0, 1.6981679687274153E9, 0.0, 2023-10-24 14:19:28.727
19.0, -51039.11322821537, -57361.50531309907, -54579.40603249145, -66227.99530363028, -40580.1285004769, -25984.796999072674, -40212.241138487, -22921.691587172936, -0.388, -0.08600000000000001, 0.924, 192.0, 0.0, 0.0, 0.0, 0.0, 0.0, 0.0, 0.0, 0.0, 0.0, 1.6981679687304063E9, 0.0, 2023-10-24 14:19:28.730
20.0, -50771.13816394069, -51957.83698056186, -52602.55069763073, -65794.61733038632, -40518.705906713716, -20662.22079541931, -41935.91826390246, -24532.402996111276, -0.388, -0.08600000000000001, 0.924, 192.0, 0.0, 0.0, 0.0, 0.0, 0.0, 0.0, 0.0, 0.0, 0.0, 1.6981679687344131E9, 0.0, 2023-10-24 14:19:28.734
21.0, -50011.1565007158, -50265.69816657283, -52341.9517090263, -65389.04492724478, -40917.61749000758, -19285.889778839326, -42780.27776244614, -25360.490424691492, -0.388, -0.08600000000000001, 0.924, 192.0, 0.0, 0.0, 0.0, 0.0, 0.0, 0.0, 0.0, 0.0, 0.0, 1.6981679687384536E9, 0.0, 2023-10-24 14:19:28.738
22.0, -50190.439842991815, -55784.61209352161, -54407.5434693746, -65787.3306616939, -41058.679349265025, -24750.354856294973, -41079.48882335291, -23781.89847253543, -0.388, -0.08600000000000001, 0.924, 192.0, 0.0, 0.0, 0.0, 0.0, 0.0, 0.0, 0.0, 0.0, 0.0, 1.6981679687425086E9, 0.0, 2023-10-24 14:19:28.742
23.0, -50995.437919549695, -57979.57575077722, -54884.41793732857, -66242.00984740375, -40688.46740585177, -26588.607023788336, -40105.042172079346, -22835.547964042184, -0.388, -0.08600000000000001, 0.924, 192.0, 0.0, 0.0, 0.0, 0.0, 0.0, 0.0, 0.0, 0.0, 0.0, 1.6981679687464972E9, 0.0, 2023-10-24 14:19:28.746
24.0, -50940.11735202281, -53050.94904314865, -52993.43800466514, -65927.69961687323, -40532.78750572056, -21666.14939762943, -41609.58279485498, -24223.79246041685, -0.388, -0.08600000000000001, 0.924, 192.0, 0.0, 0.0, 0.0, 0.0, 0.0, 0.0, 0.0, 0.0, 0.0, 1.6981679687494814E9, 0.0, 2023-10-24 14:19:28.749
25.0, -50159.92971181032, -49940.50263649257, -52181.42148034829, -65432.45201497698, -40878.41253023297, -18883.781896088352, -42871.18230714587, -25431.36780635927, -0.388, -0.08600000000000001, 0.924, 192.0, 0.0, 0.0, 0.0, 0.0, 0.0, 0.0, 0.0, 0.0, 0.0, 1.6981679687534995E9, 0.0, 2023-10-24 14:19:28.753
26.0, -50130.470112618226, -54730.59323198715, -54083.823154428384, -65704.22687580906, -41116.23509123744, -23709.63528271142, -41471.3372553989, -24138.67701753104, -0.388, -0.08600000000000001, 0.924, 192.0, 0.0, 0.0, 0.0, 0.0, 0.0, 0.0, 0.0, 0.0, 0.0, 1.6981679687574487E9, 0.0, 2023-10-24 14:19:28.757
27.0, -50928.829721072885, -58306.849993091826, -55088.17643978315, -66239.55115551366, -40799.06383741663, -26942.6586559604, -40077.61658163268, -22805.32840553861, -0.388, -0.08600000000000001, 0.924, 192.0, 0.0, 0.0, 0.0, 0.0, 0.0, 0.0, 0.0, 0.0, 0.0, 1.698167968761454E9, 0.0, 2023-10-24 14:19:28.761
28.0, -51064.54951340551, -54154.074687251414, -53400.70914038529, -66034.20567920276, -40540.856485468925, -22705.371404334477, -41246.76927885643, -23878.122732415526, -0.388, -0.08600000000000001, 0.924, 192.0, 0.0, 0.0, 0.0, 0.0, 0.0, 0.0, 0.0, 0.0, 0.0, 1.698167968769035E9, 0.0, 2023-10-24 14:19:28.769
29.0, -50323.410370756435, -49907.39970295426, -52116.84729061691, -65491.99706220592, -40821.08030570511, -18760.199100994956, -42841.96857714279, -25398.8460181768, -0.388, -0.088, 0.924, 192.0, 243.0, 224.0, 253.0, 64.0, 28.0, 224.0, 0.0, 0.0, 0.0, 1.6981679687704496E9, 0.0, 2023-10-24 14:19:28.770
30.0, -50062.83373389646, -53611.62020106557, -53677.647254186544, -65602.90641819316, -41130.1602280331, -22605.190885685788, -41848.4782395933, -24497.042536382978, -0.388, -0.088, 0.924, 192.0, 0.0, 0.0, 0.0, 0.0, 0.0, 0.0, 0.0, 0.0, 0.0, 1.6981679687745044E9, 0.0, 2023-10-24 14:19:28.774
31.0, -50779.29655066688, -58279.93849276764, -55103.867364390775, -66165.43277089988, -40873.15987028598, -26976.722714510288, -40128.48915201297, -22861.230118421332, -0.388, -0.088, 0.924, 192.0, 0.0, 0.0, 0.0, 0.0, 0.0, 0.0, 0.0, 0.0, 0.0, 1.6981679687775931E9, 0.0, 2023-10-24 14:19:28.777
32.0, -51114.17038609629, -55203.578496405906, -53740.90269099506, -66115.72249123127, -40549.57366580649, -23739.27369585916, -40902.59711773362, -23554.46947270268, -0.388, -0.088, 0.924, 192.0, 0.0, 0.0, 0.0, 0.0, 0.0, 0.0, 0.0, 0.0, 0.0, 1.6981679687815073E9, 0.0, 2023-10-24 14:19:28.781
33.0, -50466.81916318169, -50168.66924389234, -52137.768523427076, -65579.10181034825, -40760.68589218687, -18970.3278506193, -42711.85907266844, -25263.729722944467, -0.388, -0.088, 0.924, 192.0, 0.0, 0.0, 0.0, 0.0, 0.0, 0.0, 0.0, 0.0, 0.0, 1.6981679687855103E9, 0.0, 2023-10-24 14:19:28.785
34.0, -50006.23911693563, -52523.60433621459, -53296.52765947911, -65531.87257431419, -41124.23701575244, -21549.11566366144, -42195.600830984215, -24815.756060571202, -0.388, -0.088, 0.924, 192.0, 0.0, 0.0, 0.0, 0.0, 0.0, 0.0, 0.0, 0.0, 0.0, 1.6981679687895362E9, 0.0, 2023-10-24 14:19:28.789
35.0, -50636.84888325321, -57976.89354144258, -55099.531125966445, -66096.61174972198, -40963.50562137432, -26746.075063475975, -40286.44893007862, -23022.050919777266, -0.388, -0.088, 0.924, 192.0, 0.0, 0.0, 0.0, 0.0, 0.0, 0.0, 0.0, 0.0, 0.0, 1.698167968794519E9, 0.0, 2023-10-24 14:19:28.794
36.0, -51148.59207255746, -56205.294275914945, -54156.57808263041, -66183.0235937862, -40579.525003376606, -24734.395710753884, -40584.15181447886, -23270.781132075925, -0.388, -0.088, 0.924, 192.0, 0.0, 0.0, 0.0, 0.0, 0.0, 0.0, 0.0, 0.0, 0.0, 1.698167968798522E9, 0.0, 2023-10-24 14:19:28.798
37.0, -50614.40773182008, -50724.11009360672, -52283.88187693142, -65655.38831417421, -40684.24292614972, -19465.262528093164, -42456.512744011015, -25032.970313187878, -0.388, -0.088, 0.924, 192.0, 0.0, 0.0, 0.0, 0.0, 0.0, 0.0, 0.0, 0.0, 0.0, 1.6981679688025212E9, 0.0, 2023-10-24 14:19:28.802
38.0, -49980.445203834206, -51523.3637718396, -52861.13802923418, -65433.65900917757, -41057.51705855335, -20536.581639836033, -42453.38349978728, -25062.34050540215, -0.388, -0.088, 0.924, 192.0, 0.0, 0.0, 0.0, 0.0, 0.0, 0.0, 0.0, 0.0, 0.0, 1.6981679688055418E9, 0.0, 2023-10-24 14:19:28.805
39.0, -50467.86969517109, -57339.62295527732, -54908.557821340306, -65975.21942558521, -41024.59293897068, -26172.149321097055, -40526.48431378416, -23254.79963479038, -0.39, -0.09, 0.92, 192.0, 243.0, 208.0, 253.0, 48.0, 28.0, 192.0, 0.0, 0.0, 0.0, 1.6981679688095307E9, 0.0, 2023-10-24 14:19:28.809
40.0, -51139.0702294195, -57051.64307971515, -54516.217650916304, -66223.79317567268, -40630.352870267976, -25599.140000240805, -40341.88125632778, -23046.816652633748, -0.39, -0.09, 0.92, 192.0, 0.0, 0.0, 0.0, 0.0, 0.0, 0.0, 0.0, 0.0, 0.0, 1.6981679688135486E9, 0.0, 2023-10-24 14:19:28.813
41.0, -50763.24799814797, -51522.33559159465, -52562.608130289096, -65755.50177758954, -40638.64536746089, -20206.33461550887, -42166.320045747765, -24751.673609217836, -0.39, -0.09, 0.92, 192.0, 0.0, 0.0, 0.0, 0.0, 0.0, 0.0, 0.0, 0.0, 0.0, 1.6981679688175628E9, 0.0, 2023-10-24 14:19:28.817
42.0, -50073.540219490555, -50778.29072216639, -52597.05216849472, -65433.92723011103, -41051.59384627269, -19749.86729024259, -42712.90960465784, -25295.938586704564, -0.39, -0.09, 0.92, 192.0, 0.0, 0.0, 0.0, 0.0, 0.0, 0.0, 0.0, 0.0, 0.0, 1.6981679688215456E9, 0.0, 2023-10-24 14:19:28.821
43.0, -50326.58431846909, -56485.361633939945, -54636.69355353041, -65877.65406103779, -41102.287602697324, -25374.952003354076, -40871.885820852025, -23575.65892644631, -0.39, -0.09, 0.92, 192.0, 0.0, 0.0, 0.0, 0.0, 0.0, 0.0, 0.0, 0.0, 0.0, 1.6981679688265607E9, 0.0, 2023-10-24 14:19:28.826
44.0, -51042.10836197238, -57688.488982735755, -54713.27063003429, -66250.05647540766, -40693.4518448653, -26275.43673222503, -40182.66978057263, -22893.573092648163, -0.39, -0.09, 0.92, 192.0, 0.0, 0.0, 0.0, 0.0, 0.0, 0.0, 0.0, 0.0, 0.0, 1.6981679688295753E9, 0.0, 2023-10-24 14:19:28.829
45.0, -50848.74342068952, -52413.65610523893, -52756.77773437235, -65858.16333987276, -40591.17026223782, -21068.799027061348, -41830.954471940335, -24428.042701249447, -0.39, -0.09, 0.92, 192.0, 0.0, 0.0, 0.0, 0.0, 0.0, 0.0, 0.0, 0.0, 0.0, 1.6981679688335822E9, 0.0, 2023-10-24 14:19:28.833
46.0, -50062.789030407555, -50122.08820844749, -52254.7352021617, -65398.61147387165, -40953.58144683617, -19113.758994789005, -42831.28444329315, -25394.97916638603, -0.39, -0.09, 0.92, 192.0, 0.0, 0.0, 0.0, 0.0, 0.0, 0.0, 0.0, 0.0, 0.0, 1.698167968837562E9, 0.0, 2023-10-24 14:19:28.837
47.0, -50156.174618741825, -55389.90263818534, -54282.12783123587, -65740.68257101567, -41126.11456228668, -24370.844587188316, -41230.1842844706, -23909.63869209751, -0.39, -0.09, 0.92, 192.0, 0.0, 0.0, 0.0, 0.0, 0.0, 0.0, 0.0, 0.0, 0.0, 1.6981679688415685E9, 0.0, 2023-10-24 14:19:28.841
48.0, -50990.22996309161, -58166.77161059042, -55003.284514341896, -66247.6871904954, -40787.709151233335, -26792.901968109843, -40100.48241621046, -22817.264237077743, -0.39, -0.09, 0.92, 192.0, 0.0, 0.0, 0.0, 0.0, 0.0, 0.0, 0.0, 0.0, 0.0, 1.698167968845744E9, 0.0, 2023-10-24 14:19:28.845
49.0, -51003.75276848707, -53505.762339325236, -53173.66012020828, -65967.79864642605, -40586.83402381349, -22107.976330277485, -41475.91936301224, -24088.944386117983, -0.392, -0.092, 0.918, 192.0, 243.0, 192.0, 253.0, 32.0, 28.0, 176.0, 0.0, 0.0, 0.0, 1.6981679688505895E9, 0.0, 2023-10-24 14:19:28.850
50.0, -50203.11328209797, -49880.55525786344, -52128.00081110011, -65421.54436368279, -40884.22398379135, -18808.925903907526, -42858.37475757298, -25411.497105538503, -0.392, -0.092, 0.918, 192.0, 0.0, 0.0, 0.0, 0.0, 0.0, 0.0, 0.0, 0.0, 0.0, 1.6981679688546867E9, 0.0, 2023-10-24 14:19:28.854
51.0, -50065.56064672001, -54270.95195900821, -53930.378428742704, -65621.90540098016, -41144.28653052885, -23286.203835750086, -41600.262117417114, -24258.772940489405, -0.392, -0.092, 0.918, 192.0, 0.0, 0.0, 0.0, 0.0, 0.0, 0.0, 0.0, 0.0, 0.0, 1.6981679688575919E9, 0.0, 2023-10-24 14:19:28.857
52.0, -50885.333226362854, -58358.19195010566, -55107.60010571482, -66208.70574816535, -40878.63604767752, -27022.767308088223, -40095.20740451901, -22825.84730694858, -0.392, -0.092, 0.918, 192.0, 0.0, 0.0, 0.0, 0.0, 0.0, 0.0, 0.0, 0.0, 0.0, 1.6981679688616376E9, 0.0, 2023-10-24 14:19:28.861
53.0, -51097.227763799165, -54579.22721853581, -53512.42315917292, -66059.4407986928, -40587.906907547345, -23134.368435665183, -41117.84441683822, -23758.585603068543, -0.392, -0.092, 0.918, 192.0, 0.0, 0.0, 0.0, 0.0, 0.0, 0.0, 0.0, 0.0, 0.0, 1.6981679688655772E9, 0.0, 2023-10-24 14:19:28.865
54.0, -50368.918522467444, -49956.90881692277, -52098.4965084191, -65497.51794308639, -40831.183294198905, -18812.3904242981, -42800.751960367204, -25354.410750199648, -0.392, -0.092, 0.918, 192.0, 0.0, 0.0, 0.0, 0.0, 0.0, 0.0, 0.0, 0.0, 0.0, 1.6981679688696148E9, 0.0, 2023-10-24 14:19:28.869
55.0, -50036.369268461385, -53168.653329450295, -53524.22488024532, -65554.4254844696, -41168.47111802949, -22193.047069674383, -41991.14942445153, -24623.35224429992, -0.392, -0.092, 0.918, 192.0, 0.0, 0.0, 0.0, 0.0, 0.0, 0.0, 0.0, 0.0, 0.0, 1.698167968873675E9, 0.0, 2023-10-24 14:19:28.873
56.0, -50764.231474904, -58220.30403856088, -55142.0664956649, -66154.79334053914, -40966.187830708965, -26939.171783825375, -40210.542405908396, -22933.985046623355, -0.392, -0.092, 0.918, 192.0, 0.0, 0.0, 0.0, 0.0, 0.0, 0.0, 0.0, 0.0, 0.0, 1.6981679688776228E9, 0.0, 2023-10-24 14:19:28.877
57.0, -51178.36459617193, -55621.71257993133, -53934.28998402238, -66161.07418073108, -40618.12646605092, -24147.193032168514, -40813.59247131258, -23469.510492028057, -0.392, -0.092, 0.918, 192.0, 0.0, 0.0, 0.0, 0.0, 0.0, 0.0, 0.0, 0.0, 0.0, 1.6981679688826413E9, 0.0, 2023-10-24 14:19:28.882
58.0, -50571.20180978797, -50366.77275499973, -52212.69157084126, -65612.11533690874, -40793.14062513597, -19143.30800095892, -42659.37717668738, -25215.427603176548, -0.392, -0.092, 0.918, 192.0, 0.0, 0.0, 0.0, 0.0, 0.0, 0.0, 0.0, 0.0, 0.0, 1.6981679688856475E9, 0.0, 2023-10-24 14:19:28.885
59.0, -50037.062172539496, -52128.805473900495, -53176.968178387666, -65505.29635015683, -41186.598382782744, -21166.409095097675, -42361.4507748426, -24977.001545071787, -0.394, -0.094, 0.924, 192.0, 243.0, 176.0, 253.0, 16.0, 28.0, 224.0, 0.0, 0.0, 0.0, 1.6981679688896177E9, 0.0, 2023-10-24 14:19:28.889
60.0, -50622.52141505735, -57775.951358789374, -55092.6020851853, -66083.75949666018, -41081.47812860944, -26581.16389288472, -40452.03065300354, -23177.619061186204, -0.394, -0.094, 0.924, 192.0, 0.0, 0.0, 0.0, 0.0, 0.0, 0.0, 0.0, 0.0, 0.0, 1.698167968893641E9, 0.0, 2023-10-24 14:19:28.893
61.0, -51234.06514335456, -56570.633539036935, -54343.21514883223, -66249.74355098528, -40696.402275133405, -25103.780639622288, -40577.44629114226, -23256.565422602347, -0.394, -0.094, 0.924, 192.0, 0.0, 0.0, 0.0, 0.0, 0.0, 0.0, 0.0, 0.0, 0.0, 1.6981679688976176E9, 0.0, 2023-10-24 14:19:28.897
62.0, -50751.46862882002, -51020.9412599732, -52425.1225501445, -65739.34146634836, -40767.145546334454, -19735.942153446933, -42444.64396770525, -25010.28329256574, -0.394, -0.094, 0.924, 192.0, 0.0, 0.0, 0.0, 0.0, 0.0, 0.0, 0.0, 0.0, 0.0, 1.6981679689016914E9, 0.0, 2023-10-24 14:19:28.901
63.0, -50063.39252750785, -51199.77756736011, -52811.36069433221, -65474.562701530784, -41163.263161571405, -20226.04885411845, -42662.461717422215, -25253.269106539385, -0.394, -0.094, 0.924, 192.0, 0.0, 0.0, 0.0, 0.0, 0.0, 0.0, 0.0, 0.0, 0.0, 1.698167968906646E9, 0.0, 2023-10-24 14:19:28.906
64.0, -50444.757991404294, -57001.910448302086, -54858.44521027151, -65974.59357674046, -41152.511972488406, -25905.627120211975, -40753.667444427905, -23466.11302687085, -0.394, -0.094, 0.924, 192.0, 0.0, 0.0, 0.0, 0.0, 0.0, 0.0, 0.0, 0.0, 0.0, 1.6981679689097736E9, 0.0, 2023-10-24 14:19:28.909
65.0, -51159.6785378073, -57300.39564375826, -54629.250422626785, -66278.15261818799, -40749.93470310387, -25886.002288580214, -40375.095948588365, -23069.36956278915, -0.394, -0.094, 0.924, 192.0, 0.0, 0.0, 0.0, 0.0, 0.0, 0.0, 0.0, 0.0, 0.0, 1.6981679689126787E9, 0.0, 2023-10-24 14:19:28.912
66.0, -50859.91929291717, -51832.197824978575, -52629.21632876591, -65829.0390168475, -40708.04753399462, -20511.43592732381, -42132.30069068679, -24708.132411018898, -0.394, -0.094, 0.924, 192.0, 0.0, 0.0, 0.0, 0.0, 0.0, 0.0, 0.0, 0.0, 0.0, 1.6981679689177003E9, 0.0, 2023-10-24 14:19:28.917
67.0, -50103.759777994135, -50456.53736073225, -52461.89116977348, -65440.23042204743, -41099.784207318335, -19453.192586087298, -42856.608969761015, -25423.432937077636, -0.394, -0.094, 0.924, 192.0, 0.0, 0.0, 0.0, 0.0, 0.0, 0.0, 0.0, 0.0, 0.0, 1.698167968921698E9, 0.0, 2023-10-24 14:19:28.921
68.0, -50310.20048978335, -56058.37625961021, -54543.330316940584, -65854.18472935972, -41201.574051567804, -24991.32901326764, -41096.073817738754, -23780.825588801574, -0.394, -0.094, 0.924, 192.0, 0.0, 0.0, 0.0, 0.0, 0.0, 0.0, 0.0, 0.0, 0.0, 1.698167968925695E9, 0.0, 2023-10-24 14:19:28.925
69.0, -51102.70394119072, -57926.57976467368, -54899.66182704709, -66289.21673169336, -40819.80625627116, -26509.303034460907, -40226.59095842731, -22928.128889576066, -0.394, -0.094, 0.924, 192.0, 0.0, 0.0, 0.0, 0.0, 0.0, 0.0, 0.0, 0.0, 0.0, 1.6981679689297197E9, 0.0, 2023-10-24 14:19:28.929
70.0, -50982.00452113206, -52863.909645546635, -52979.19994344711, -65927.63256163985, -40672.95529519979, -21471.06337202351, -41768.816622354585, -24361.121578350256, -0.388, -0.094, 0.922, 192.0, 243.0, 224.0, 253.0, 16.0, 28.0, 208.0, 0.0, 0.0, 0.0, 1.6981679689347172E9, 0.0, 2023-10-24 14:19:28.934
71.0, -50196.586572717024, -50055.032975081565, -52288.709853733766, -65445.773654672346, -41028.951529139464, -18996.613502098742, -42938.01402306724, -25491.851626855332, -0.388, -0.094, 0.922, 192.0, 0.0, 0.0, 0.0, 0.0, 0.0, 0.0, 0.0, 0.0, 0.0, 1.6981679689377165E9, 0.0, 2023-10-24 14:19:28.937
72.0, -50199.78287217413, -55035.292212401895, -54234.49626380161, -65741.37547509378, -41238.23091247451, -24003.091335665147, -41459.334368626405, -24126.830592969727, -0.388, -0.094, 0.922, 192.0, 0.0, 0.0, 0.0, 0.0, 0.0, 0.0, 0.0, 0.0, 0.0, 1.698167968940716E9, 0.0, 2023-10-24 14:19:28.940
73.0, -51006.770253988536, -58325.44664447864, -55121.43583553265, -66262.640507536, -40895.69042869692, -26936.824850657566, -40148.89629470066, -22865.409894634475, -0.388, -0.094, 0.922, 192.0, 0.0, 0.0, 0.0, 0.0, 0.0, 0.0, 0.0, 0.0, 0.0, 1.6981679689457035E9, 0.0, 2023-10-24 14:19:28.945
74.0, -51077.178249022756, -53966.163571615645, -53332.17869188532, -66016.14546968287, -40639.293568050096, -22513.816954352493, -41383.7184171341, -24000.029146674773, -0.388, -0.094, 0.922, 192.0, 0.0, 0.0, 0.0, 0.0, 0.0, 0.0, 0.0, 0.0, 0.0, 1.6981679689507043E9, 0.0, 2023-10-24 14:19:28.950
75.0, -50341.55998725414, -49962.22853210313, -52187.34469262895, -65492.44409709503, -40948.03821421125, -18820.14647962409, -42921.96547054833, -25468.628164366266, -0.388, -0.094, 0.922, 192.0, 0.0, 0.0, 0.0, 0.0, 0.0, 0.0, 0.0, 0.0, 0.0, 1.698167968954713E9, 0.0, 2023-10-24 14:19:28.954
76.0, -50145.892816292384, -53946.62814696171, -53844.54773003433, -65660.93154679914, -41259.21920051804, -22926.11723257509, -41850.378137872, -24494.874417170813, -0.388, -0.094, 0.922, 192.0, 0.0, 0.0, 0.0, 0.0, 0.0, 0.0, 0.0, 0.0, 0.0, 1.6981679689577496E9, 0.0, 2023-10-24 14:19:28.957
77.0, -50897.67138930219, -58420.150985735774, -55215.84960411186, -66230.632809476, -40987.086711774675, -27084.212253595862, -40198.85244355827, -22924.709072674403, -0.388, -0.094, 0.922, 192.0, 0.0, 0.0, 0.0, 0.0, 0.0, 0.0, 0.0, 0.0, 0.0, 1.6981679689617817E9, 0.0, 2023-10-24 14:19:28.961
78.0, -51161.623139574906, -55074.296006476405, -53746.31181315325, -66119.41052906639, -40649.709480966274, -23594.99318540015, -41036.998157143375, -23685.853026610974, -0.388, -0.094, 0.922, 192.0, 0.0, 0.0, 0.0, 0.0, 0.0, 0.0, 0.0, 0.0, 0.0, 1.6981679689658203E9, 0.0, 2023-10-24 14:19:28.965
79.0, -50480.766651721795, -50165.16002001286, -52190.339826385956, -65557.93470834907, -40862.14046026951, -18969.076152929803, -42785.575125882046, -25340.619723870725, -0.388, -0.094, 0.922, 192.0, 0.0, 0.0, 0.0, 0.0, 0.0, 0.0, 0.0, 0.0, 0.0, 1.698167968968744E9, 0.0, 2023-10-24 14:19:28.968
80.0, -50077.63058872588, -52816.90392695712, -53406.74411138822, -65549.75396987844, -41215.72270580801, -21832.625190332557, -42162.76611837937, -24785.201225900797, -0.392, -0.092, 0.928, 192.0, 243.0, 192.0, 253.0, 32.0, 29.0, 0.0, 0.0, 0.0, 0.0, 1.6981679689738033E9, 0.0, 2023-10-24 14:19:28.973
81.0, -50729.921547165104, -58140.70947655553, -55155.09756268234, -66131.74869200573, -41044.93302642501, -26882.51011163117, -40303.59271807584, -23024.308445967254, -0.392, -0.092, 0.928, 192.0, 0.0, 0.0, 0.0, 0.0, 0.0, 0.0, 0.0, 0.0, 0.0, 1.6981679689777412E9, 0.0, 2023-10-24 14:19:28.977
82.0, -51185.20422997526, -56050.9778321955, -54092.495631277045, -66180.38608794047, -40662.94171368381, -24575.117179765366, -40708.87454853947, -23368.033572200966, -0.392, -0.092, 0.928, 192.0, 0.0, 0.0, 0.0, 0.0, 0.0, 0.0, 0.0, 0.0, 0.0, 1.698167968981754E9, 0.0, 2023-10-24 14:19:28.981
83.0, -50615.86059520967, -50626.522377314854, -52266.00048136717, -65632.1424999407, -40778.70139821785, -19374.44739037125, -42559.71074816117, -25110.44145946997, -0.392, -0.092, 0.928, 192.0, 0.0, 0.0, 0.0, 0.0, 0.0, 0.0, 0.0, 0.0, 0.0, 1.6981679689857717E9, 0.0, 2023-10-24 14:19:28.985
84.0, -50037.755076617614, -51793.663417537624, -53006.20085074912, -65458.64825947861, -41165.47598427248, -20806.076622733668, -42444.24163630505, -25038.021807434776, -0.392, -0.092, 0.928, 192.0, 0.0, 0.0, 0.0, 0.0, 0.0, 0.0, 0.0, 0.0, 0.0, 1.6981679689907804E9, 0.0, 2023-10-24 14:19:28.990
85.0, -50556.181437514, -57557.843036394486, -55002.07752014131, -66011.51865858062, -41100.36535267417, -26375.974878785, -40514.48142701166, -23224.893000709177, -0.392, -0.092, 0.928, 192.0, 0.0, 0.0, 0.0, 0.0, 0.0, 0.0, 0.0, 0.0, 0.0, 1.6981679689937952E9, 0.0, 2023-10-24 14:19:28.993
86.0, -51196.87184058093, -56933.804682946764, -54443.41801922536, -66234.49966126677, -40704.583013604046, -25473.52319640198, -40443.15701045478, -23118.96808373548, -0.392, -0.092, 0.928, 192.0, 0.0, 0.0, 0.0, 0.0, 0.0, 0.0, 0.0, 0.0, 0.0, 1.69816796899678E9, 0.0, 2023-10-24 14:19:28.996
87.0, -50784.92919026961, -51371.03663337668, -52491.48487943231, -65740.54846054893, -40724.40901093591, -20072.648831921677, -42276.69295986807, -24836.67729338137, -0.392, -0.092, 0.928, 192.0, 0.0, 0.0, 0.0, 0.0, 0.0, 0.0, 0.0, 0.0, 0.0, 1.6981679690008068E9, 0.0, 2023-10-24 14:19:29.000
88.0, -50081.83271668348, -50948.052221304446, -52664.9791198944, -65431.580296943226, -41125.84634135322, -19956.933850876554, -42700.21381380723, -25268.33418230226, -0.392, -0.092, 0.928, 192.0, 0.0, 0.0, 0.0, 0.0, 0.0, 0.0, 0.0, 0.0, 0.0, 1.6981679690057812E9, 0.0, 2023-10-24 14:19:29.005
89.0, -50430.47522669736, -56748.82164583464, -54764.88080798159, -65912.94746553272, -41161.720891203986, -25628.46548896617, -40832.6361575885, -23521.344187419916, -0.392, -0.092, 0.928, 192.0, 0.0, 0.0, 0.0, 0.0, 0.0, 0.0, 0.0, 0.0, 0.0, 1.698167969009764E9, 0.0, 2023-10-24 14:19:29.009
90.0, -51181.27032295112, -57674.25092151773, -54781.91283725653, -66272.22940590733, -40762.80930791012, -26221.65843506556, -40257.659883220185, -22947.194927596443, -0.392, -0.094, 0.926, 192.0, 243.0, 192.0, 253.0, 16.0, 28.0, 240.0, 0.0, 0.0, 0.0, 1.6981679690137966E9, 0.0, 2023-10-24 14:19:29.013
91.0, -50936.853997332335, -52310.659266788876, -52796.47443252498, -65849.53556651302, -40677.313885368574, -20940.500013887886, -41942.64613898351, -24517.695548259682, -0.392, -0.094, 0.926, 192.0, 0.0, 0.0, 0.0, 0.0, 0.0, 0.0, 0.0, 0.0, 0.0, 1.6981679690177977E9, 0.0, 2023-10-24 14:19:29.017
92.0, -50161.919017066844, -50341.5823389986, -52394.23243930727, -65415.55409616877, -41050.72212823894, -19304.68759592624, -42843.08616436555, -25393.727468696532, -0.392, -0.094, 0.926, 192.0, 0.0, 0.0, 0.0, 0.0, 0.0, 0.0, 0.0, 0.0, 0.0, 1.6981679690208108E9, 0.0, 2023-10-24 14:19:29.020
93.0, -50295.85066984304, -55750.77155241628, -54453.14102806342, -65792.04687977396, -41202.557528323836, -24678.382239148887, -41184.13969089266, -23854.318124570626, -0.392, -0.094, 0.926, 192.0, 0.0, 0.0, 0.0, 0.0, 0.0, 0.0, 0.0, 0.0, 0.0, 1.6981679690248215E9, 0.0, 2023-10-24 14:19:29.024
94.0, -51104.1121010914, -58191.47028821353, -55040.36605839325, -66273.8387315081, -40843.65556760497, -26771.73486611067, -40140.17911436309, -22840.979437944825, -0.392, -0.094, 0.926, 192.0, 0.0, 0.0, 0.0, 0.0, 0.0, 0.0, 0.0, 0.0, 0.0, 1.6981679690299516E9, 0.0, 2023-10-24 14:19:29.029
95.0, -51058.42513542475, -53353.12227643994, -53142.27827099303, -65958.6120794549, -40651.67643447834, -21937.23135438339, -41575.9657711942, -24167.421360900567, -0.392, -0.094, 0.926, 192.0, 0.0, 0.0, 0.0, 0.0, 0.0, 0.0, 0.0, 0.0, 0.0, 1.6981679690338745E9, 0.0, 2023-10-24 14:19:29.033
96.0, -50281.746719091745, -50018.19730021922, -52237.34554497547, -65455.563718743775, -40989.880679831585, -18928.597143721243, -42914.81291232263, -25449.830347279352, -0.392, -0.094, 0.926, 192.0, 0.0, 0.0, 0.0, 0.0, 0.0, 0.0, 0.0, 0.0, 0.0, 1.6981679690378416E9, 0.0, 2023-10-24 14:19:29.037
97.0, -50185.611866189465, -54619.1921376219, -54071.90967463371, -65697.00726235, -41234.229950217006, -23604.962063427218, -41584.14650966484, -24227.145222085146, -0.392, -0.094, 0.926, 192.0, 0.0, 0.0, 0.0, 0.0, 0.0, 0.0, 0.0, 0.0, 0.0, 1.6981679690418327E9, 0.0, 2023-10-24 14:19:29.041
98.0, -50970.73924192658, -58398.983883736604, -55149.2190538906, -66243.79798696017, -40919.629147008556, -27055.333799759603, -40127.88565491267, -22832.508126796263, -0.392, -0.094, 0.926, 192.0, 0.0, 0.0, 0.0, 0.0, 0.0, 0.0, 0.0, 0.0, 0.0, 1.6981679690459764E9, 0.0, 2023-10-24 14:19:29.045
99.0, -51131.895319449344, -54395.965265746745, -53473.39701335395, -66048.37668518742, -40635.40436451487, -22957.946116679446, -41221.31064192184, -23834.737996427775, -0.392, -0.094, 0.926, 192.0, 0.0, 0.0, 0.0, 0.0, 0.0, 0.0, 0.0, 0.0, 0.0, 1.698167969049858E9, 0.0, 2023-10-24 14:19:29.049
100.0, -50379.53560108371, -49966.02832866053, -52132.6052704579, -65480.642376022624, -40892.0023908618, -18834.16102339757, -42841.67800446487, -25377.656564433168, -0.394, -0.094, 0.922, 192.0, 243.0, 176.0, 253.0, 16.0, 28.0, 208.0, 0.0, 0.0, 0.0, 1.6981679690528555E9, 0.0, 2023-10-24 14:19:29.052
101.0, -50095.713149990224, -53464.45631557183, -53648.008841038805, -65574.81027541283, -41217.30967966434, -22483.105657470904, -41930.57619697764, -24553.10071147689, -0.394, -0.094, 0.922, 192.0, 0.0, 0.0, 0.0, 0.0, 0.0, 0.0, 0.0, 0.0, 0.0, 1.6981679690568373E9, 0.0, 2023-10-24 14:19:29.056
102.0, -50845.45771425459, -58328.17355730219, -55207.44534819667, -66170.05958200211, -40995.80389211224, -27041.229849008305, -40191.85634754376, -22902.91612183048, -0.394, -0.094, 0.922, 192.0, 0.0, 0.0, 0.0, 0.0, 0.0, 0.0, 0.0, 0.0, 0.0, 1.6981679690618353E9, 0.0, 2023-10-24 14:19:29.061
103.0, -51198.548221415076, -55446.76547607964, -53883.328006664284, -66126.98777043674, -40643.629806474426, -23976.202187085415, -40879.44071047792, -23513.722242560656, -0.394, -0.094, 0.922, 192.0, 0.0, 0.0, 0.0, 0.0, 0.0, 0.0, 0.0, 0.0, 0.0, 1.6981679690658624E9, 0.0, 2023-10-24 14:19:29.065
104.0, -50541.67515536251, -50289.27925697318, -52185.13186992787, -65565.89192937517, -40822.46611386134, -19073.39174430272, -42691.8766131254, -25224.860039336687, -0.394, -0.094, 0.922, 192.0, 0.0, 0.0, 0.0, 0.0, 0.0, 0.0, 0.0, 0.0, 0.0, 1.698167969069882E9, 0.0, 2023-10-24 14:19:29.069
105.0, -50067.885228143365, -52373.06533730809, -53235.59680409394, -65501.11657394369, -41201.574051567804, -21403.29288283502, -42274.45778542254, -24866.181596062375, -0.394, -0.094, 0.922, 192.0, 0.0, 0.0, 0.0, 0.0, 0.0, 0.0, 0.0, 0.0, 0.0, 1.6981679690729456E9, 0.0, 2023-10-24 14:19:29.072
106.0, -50694.87401185918, -57935.2745932668, -55129.28129783646, -66100.12097360146, -41086.17199494505, -26722.918656220278, -40389.222251084124, -23085.9992606639, -0.394, -0.094, 0.922, 192.0, 0.0, 0.0, 0.0, 0.0, 0.0, 0.0, 0.0, 0.0, 0.0, 1.6981679690768917E9, 0.0, 2023-10-24 14:19:29.076
107.0, -51240.65890796887, -56420.318057575, -54254.36696462238, -66224.73194893979, -40703.66659208138, -24946.156137723465, -40618.61820442894, -23264.74616107299, -0.394, -0.094, 0.922, 192.0, 0.0, 0.0, 0.0, 0.0, 0.0, 0.0, 0.0, 0.0, 0.0, 1.6981679690808938E9, 0.0, 2023-10-24 14:19:29.080
108.0, -50713.31420103481, -50882.24868562802, -52357.754392356204, -65680.51167494198, -40780.713055218825, -19620.56244856864, -42476.49520355406, -25012.09378386662, -0.394, -0.094, 0.922, 192.0, 0.0, 0.0, 0.0, 0.0, 0.0, 0.0, 0.0, 0.0, 0.0, 1.6981679690849032E9, 0.0, 2023-10-24 14:19:29.084
109.0, -50053.5130564586, -51419.04818046668, -52885.792003368384, -65437.21293654596, -41163.2184580825, -20454.461330707232, -42561.05185282849, -25127.764061422833, -0.394, -0.094, 0.922, 192.0, 0.0, 0.0, 0.0, 0.0, 0.0, 0.0, 0.0, 0.0, 0.0, 1.6981679690898912E9, 0.0, 2023-10-24 14:19:29.089
110.0, -50533.76263782533, -57280.88257084878, -54949.95325207154, -65981.16498961032, -41147.0134433524, -26125.188305996457, -40645.12737335293, -23329.38740603774, -0.394, -0.094, 0.922, 192.0, 0.0, 0.0, 0.0, 0.0, 0.0, 0.0, 0.0, 0.0, 0.0, 1.6981679690938816E9, 0.0, 2023-10-24 14:19:29.093
111.0, -51214.261497767155, -57256.60857637031, -54599.209678078856, -66249.385923074, -40739.51879018769, -25784.324203053024, -40369.21743979662, -23036.244277506386, -0.392, -0.088, 0.92, 192.0, 243.0, 192.0, 253.0, 64.0, 28.0, 192.0, 0.0, 0.0, 0.0, 1.6981679690979202E9, 0.0, 2023-10-24 14:19:29.097
112.0, -50827.375152990244, -51690.621875598656, -52581.763575287296, -65765.51535910551, -40695.46350186628, -20379.247710615124, -42150.159734506575, -24706.07605052901, -0.392, -0.088, 0.92, 192.0, 0.0, 0.0, 0.0, 0.0, 0.0, 0.0, 0.0, 0.0, 0.0, 1.6981679691009393E9, 0.0, 2023-10-24 14:19:29.100
113.0, -50081.56449575001, -50638.949947232, -52555.03088891875, -65397.605645371164, -41085.90377401159, -19663.634260134015, -42756.85313425698, -25311.182476423084, -0.392, -0.088, 0.92, 192.0, 0.0, 0.0, 0.0, 0.0, 0.0, 0.0, 0.0, 0.0, 0.0, 1.698167969104931E9, 0.0, 2023-10-24 14:19:29.104
114.0, -50373.67944403642, -56363.52227491406, -54646.86359725757, -65869.80859873397, -41203.22808065749, -25286.282633099872, -40982.14697625005, -23657.756883830654, -0.392, -0.088, 0.92, 192.0, 0.0, 0.0, 0.0, 0.0, 0.0, 0.0, 0.0, 0.0, 0.0, 1.6981679691090405E9, 0.0, 2023-10-24 14:19:29.109
115.0, -51145.954566711735, -57892.26983693479, -54867.922349920555, -66276.20801642037, -40824.79069528469, -26472.892042743213, -40217.8961298342, -22907.76645037728, -0.392, -0.088, 0.92, 192.0, 0.0, 0.0, 0.0, 0.0, 0.0, 0.0, 0.0, 0.0, 0.0, 1.698167969112938E9, 0.0, 2023-10-24 14:19:29.112
116.0, -50983.971474644124, -52694.014035941844, -52920.1913380851, -65891.95917748919, -40699.53151935715, -21329.956809277155, -41816.001154899735, -24391.67641302066, -0.392, -0.088, 0.92, 192.0, 0.0, 0.0, 0.0, 0.0, 0.0, 0.0, 0.0, 0.0, 0.0, 1.6981679691182663E9, 0.0, 2023-10-24 14:19:29.118
117.0, -50219.27359333916, -50173.76544162815, -52343.784552071644, -65444.54430872731, -41080.47230010895, -19152.673381885696, -42917.1821972349, -25453.09370196983, -0.392, -0.088, 0.92, 192.0, 0.0, 0.0, 0.0, 0.0, 0.0, 0.0, 0.0, 0.0, 0.0, 1.698167969121963E9, 0.0, 2023-10-24 14:19:29.121
118.0, -50260.221989181286, -55315.02429426007, -54313.04029381756, -65759.3239258914, -41258.191020273094, -24288.18783619259, -41357.119841232285, -24009.17101015699, -0.392, -0.088, 0.92, 192.0, 0.0, 0.0, 0.0, 0.0, 0.0, 0.0, 0.0, 0.0, 0.0, 1.6981679691249564E9, 0.0, 2023-10-24 14:19:29.124
119.0, -51065.10830701689, -58313.30964723941, -55110.036445860445, -66261.05353367967, -40903.066504367176, -26926.8559726305, -40133.71946021551, -22832.66458900745, -0.392, -0.088, 0.92, 192.0, 0.0, 0.0, 0.0, 0.0, 0.0, 0.0, 0.0, 0.0, 0.0, 1.698167969129944E9, 0.0, 2023-10-24 14:19:29.129
120.0, -51114.55036575203, -53774.85499082268, -53276.20992376923, -66005.23781838869, -40684.77936801665, -22349.643391328264, -41464.74349078459, -24055.19325199047, -0.392, -0.088, 0.92, 192.0, 0.0, 0.0, 0.0, 0.0, 0.0, 0.0, 0.0, 0.0, 0.0, 1.6981679691329596E9, 0.0, 2023-10-24 14:19:29.132
121.0, -50335.010926128736, -49966.98945367211, -52174.268922122596, -65464.03502989234, -40986.63967688557, -18866.97338425796, -42914.4776361558, -25439.32502738536, -0.388, -0.092, 0.922, 192.0, 243.0, 224.0, 253.0, 32.0, 28.0, 208.0, 0.0, 0.0, 0.0, 1.698167969136989E9, 0.0, 2023-10-24 14:19:29.136
122.0, -50179.196915530796, -54193.32435051494, -53919.02374255941, -65656.21532871906, -41270.17155530114, -23183.87754963369, -41737.5018283727, -24359.57930798284, -0.388, -0.092, 0.922, 192.0, 0.0, 0.0, 0.0, 0.0, 0.0, 0.0, 0.0, 0.0, 0.0, 1.698167969140979E9, 0.0, 2023-10-24 14:19:29.140
123.0, -50954.93655859668, -58440.781645868024, -55207.66886564122, -66236.39955954548, -41000.92244159251, -27115.5493993222, -40168.47642284351, -22864.80639753418, -0.388, -0.092, 0.922, 192.0, 0.0, 0.0, 0.0, 0.0, 0.0, 0.0, 0.0, 0.0, 0.0, 1.698167969146084E9, 0.0, 2023-10-24 14:19:29.146
124.0, -51162.114877952925, -54814.65814288356, -53662.403364468024, -66086.73227867273, -40675.41398708987, -23398.588406871368, -41106.154454488096, -23718.911256660376, -0.388, -0.092, 0.922, 192.0, 0.0, 0.0, 0.0, 0.0, 0.0, 0.0, 0.0, 0.0, 0.0, 1.6981679691500027E9, 0.0, 2023-10-24 14:19:29.150
125.0, -50456.53736073225, -50055.502361715124, -52146.53040725356, -65526.0164172669, -40904.51936775677, -18931.50287050043, -42828.37871651396, -25350.990933297984, -0.388, -0.092, 0.922, 192.0, 0.0, 0.0, 0.0, 0.0, 0.0, 0.0, 0.0, 0.0, 0.0, 1.6981679691530836E9, 0.0, 2023-10-24 14:19:29.153
126.0, -50080.111632360415, -53040.93546163267, -53507.37166492602, -65547.80936811083, -41250.300854480374, -22085.445771866533, -42094.07920766821, -24694.69901260126, -0.388, -0.092, 0.922, 192.0, 0.0, 0.0, 0.0, 0.0, 0.0, 0.0, 0.0, 0.0, 0.0, 1.698167969156983E9, 0.0, 2023-10-24 14:19:29.156
127.0, -50781.2858559234, -58231.47991078853, -55187.842868309366, -66139.84002349855, -41067.50828832487, -26982.15418841293, -40270.26626709298, -22971.267756374808, -0.388, -0.092, 0.922, 192.0, 0.0, 0.0, 0.0, 0.0, 0.0, 0.0, 0.0, 0.0, 0.0, 1.6981679691611016E9, 0.0, 2023-10-24 14:19:29.161
128.0, -51228.61131770746, -55855.08714378919, -54043.61236615329, -66176.58629138306, -40711.936737529846, -24406.562674827896, -40796.15811063744, -23434.105328810852, -0.388, -0.092, 0.922, 192.0, 0.0, 0.0, 0.0, 0.0, 0.0, 0.0, 0.0, 0.0, 0.0, 1.698167969164996E9, 0.0, 2023-10-24 14:19:29.164
129.0, -50649.678784570555, -50504.95123922244, -52256.34452776248, -65641.53023261193, -40860.77700385774, -19306.453383738208, -42658.818383076, -25189.119599952654, -0.388, -0.092, 0.922, 192.0, 0.0, 0.0, 0.0, 0.0, 0.0, 0.0, 0.0, 0.0, 0.0, 1.6981679691690085E9, 0.0, 2023-10-24 14:19:29.169
130.0, -50080.0222253826, -52007.36844627481, -53121.62525911633, -65490.67830928306, -41232.91119729414, -21063.971050259002, -42423.946252339636, -25005.164743085475, -0.388, -0.092, 0.922, 192.0, 0.0, 0.0, 0.0, 0.0, 0.0, 0.0, 0.0, 0.0, 0.0, 1.698167969173019E9, 0.0, 2023-10-24 14:19:29.173
131.0, -50633.00438320689, -57725.414064575925, -55100.11227132229, -66052.42235093383, -41136.99986183642, -26558.20865132912, -40494.856595379904, -23190.650128203648, -0.39, -0.092, 0.922, 192.0, 243.0, 208.0, 253.0, 32.0, 28.0, 208.0, 0.0, 0.0, 0.0, 1.6981679691780212E9, 0.0, 2023-10-24 14:19:29.178
132.0, -51242.87173066995, -56777.163657803976, -54393.08189071201, -66238.47827177981, -40745.15142979043, -25319.6761393161, -40530.0158894081, -23184.034011844877, -0.39, -0.092, 0.922, 192.0, 0.0, 0.0, 0.0, 0.0, 0.0, 0.0, 0.0, 0.0, 0.0, 1.6981679691810267E9, 0.0, 2023-10-24 14:19:29.181
133.0, -50806.833899835816, -51227.00199210668, -52471.68123384491, -65744.92940246218, -40809.21152939934, -19947.836690883243, -42393.19025196913, -24929.884067760002, -0.39, -0.092, 0.922, 192.0, 0.0, 0.0, 0.0, 0.0, 0.0, 0.0, 0.0, 0.0, 0.0, 1.698167969185032E9, 0.0, 2023-10-24 14:19:29.185
134.0, -50134.76164755364, -51157.53277033958, -52802.21883084999, -65470.13705612863, -41222.22706344451, -20187.00035655503, -42705.62293596542, -25257.784158919356, -0.39, -0.092, 0.922, 192.0, 0.0, 0.0, 0.0, 0.0, 0.0, 0.0, 0.0, 0.0, 0.0, 1.6981679691890504E9, 0.0, 2023-10-24 14:19:29.189
135.0, -50517.110588206124, -56992.679177842045, -54890.519963564875, -65967.64218421486, -41237.582711885305, -25879.83320711055, -40807.982183454296, -23481.826303222933, -0.39, -0.092, 0.922, 192.0, 0.0, 0.0, 0.0, 0.0, 0.0, 0.0, 0.0, 0.0, 0.0, 1.698167969193045E9, 0.0, 2023-10-24 14:19:29.193
136.0, -51247.409134794376, -57577.51257151516, -54752.31912759771, -66289.48495262682, -40826.288262163194, -26120.159163494012, -40332.180599234176, -22995.295881664264, -0.39, -0.092, 0.922, 192.0, 0.0, 0.0, 0.0, 0.0, 0.0, 0.0, 0.0, 0.0, 0.0, 1.698167969197153E9, 0.0, 2023-10-24 14:19:29.197
137.0, -50987.8830299238, -52148.22913983216, -52746.96531855647, -65860.28675559601, -40768.8219271686, -20786.407087613, -42073.694416724975, -24617.518438997085, -0.39, -0.092, 0.922, 192.0, 0.0, 0.0, 0.0, 0.0, 0.0, 0.0, 0.0, 0.0, 0.0, 1.698167969201038E9, 0.0, 2023-10-24 14:19:29.201
138.0, -50235.05392492461, -50523.972573753905, -52510.48386221932, -65476.08262015374, -41169.81222269681, -19503.729880300747, -42904.084074984086, -25432.150117415207, -0.39, -0.092, 0.922, 192.0, 0.0, 0.0, 0.0, 0.0, 0.0, 0.0, 0.0, 0.0, 0.0, 1.6981679692060556E9, 0.0, 2023-10-24 14:19:29.206
139.0, -50399.0933774821, -56039.44433205656, -54570.48768645379, -65881.29739538401, -41294.42319803515, -24980.778989884733, -41189.99584793995, -23840.907077897442, -0.39, -0.092, 0.922, 192.0, 0.0, 0.0, 0.0, 0.0, 0.0, 0.0, 0.0, 0.0, 0.0, 1.6981679692090805E9, 0.0, 2023-10-24 14:19:29.209
140.0, -51158.78446802908, -58119.56472630081, -55003.64214225318, -66319.72686287486, -40911.738981215836, -26735.994426726633, -40234.19055154211, -22913.712014402394, -0.39, -0.092, 0.922, 192.0, 0.0, 0.0, 0.0, 0.0, 0.0, 0.0, 0.0, 0.0, 0.0, 1.698167969212083E9, 0.0, 2023-10-24 14:19:29.212
141.0, -51067.0529087845, -53132.309392965966, -53079.60397954035, -65968.75977143762, -40737.0153948087, -21773.21425357035, -41727.06356371207, -24301.4871241435, -0.39, -0.092, 0.922, 192.0, 0.0, 0.0, 0.0, 0.0, 0.0, 0.0, 0.0, 0.0, 0.0, 1.6981679692170715E9, 0.0, 2023-10-24 14:19:29.217
142.0, -50287.44641392785, -50069.7180711887, -52273.175391337325, -65478.74247774392, -41083.44508212151, -19045.183842800125, -42973.97797989583, -25499.361812992312, -0.388, -0.09, 0.922, 192.0, 243.0, 224.0, 253.0, 48.0, 28.0, 208.0, 0.0, 0.0, 0.0, 1.6981679692211356E9, 0.0, 2023-10-24 14:19:29.221
143.0, -50252.577692577564, -54900.33237938075, -54200.789833163006, -65758.60867006883, -41315.74676224551, -23915.02546251124, -41565.169878622284, -24200.658404905607, -0.388, -0.09, 0.922, 192.0, 0.0, 0.0, 0.0, 0.0, 0.0, 0.0, 0.0, 0.0, 0.0, 1.6981679692251167E9, 0.0, 2023-10-24 14:19:29.225
144.0, -51070.606836152896, -58439.105265033875, -55180.556199616934, -66303.11951674455, -40996.13916827908, -27090.604852510078, -40200.05943775886, -22890.935586802436, -0.388, -0.09, 0.922, 192.0, 0.0, 0.0, 0.0, 0.0, 0.0, 0.0, 0.0, 0.0, 0.0, 1.6981679692291336E9, 0.0, 2023-10-24 14:19:29.229
